File: FTIR/Olivia/2025_07_10_Polystyrene_Std_OAG_scan1.csv
Created as New Dataset,Sample 807 By YargerLab Date Wednesday, July 09 2025
cm-1,A
4000.00,0.0020
3987.00,0.0019
3974.00,0.0019
3961.00,0.0019
3948.00,0.0020
3935.00,0.0020
3922.00,0.0020
3909.00,0.0020
3896.00,0.0019
3883.00,0.0020
3870.00,0.0020
3857.00,0.0021
3844.00,0.0020
3831.00,0.0019
3818.00,0.0022
3805.00,0.0021
3792.00,0.0020
3779.00,0.0019
3766.00,0.0021
3753.00,0.0023
3740.00,0.0021
3727.00,0.0020
3714.00,0.0020
3701.00,0.0019
3688.00,0.0020
3675.00,0.0020
3662.00,0.0019
3649.00,0.0022
3636.00,0.0020
3623.00,0.0020
3610.00,0.0021
3597.00,0.0022
3584.00,0.0022
3571.00,0.0023
3558.00,0.0024
3545.00,0.0025
3532.00,0.0027
3519.00,0.0027
3506.00,0.0029
3493.00,0.0029
3480.00,0.0030
3467.00,0.0031
3454.00,0.0032
3441.00,0.0033
3428.00,0.0032
3415.00,0.0033
3402.00,0.0033
3389.00,0.0032
3376.00,0.0032
3363.00,0.0031
3350.00,0.0031
3337.00,0.0031
3324.00,0.0031
3311.00,0.0030
3298.00,0.0030
3285.00,0.0029
3272.00,0.0029
3259.00,0.0028
3246.00,0.0028
3233.00,0.0028
3220.00,0.0028
3207.00,0.0028
3194.00,0.0027
3181.00,0.0026
3168.00,0.0026
3155.00,0.0026
3142.00,0.0025
3129.00,0.0025
3116.00,0.0029
3103.00,0.0050
3090.00,0.0065
3077.00,0.0090
3064.00,0.0128
3051.00,0.0096
3038.00,0.0104
3025.00,0.0279
3012.00,0.0087
2999.00,0.0084
2986.00,0.0050
2973.00,0.0059
2960.00,0.0076
2947.00,0.0125
2934.00,0.0244
2921.00,0.0339
2908.00,0.0260
2895.00,0.0156
2882.00,0.0111
2869.00,0.0091
2856.00,0.0133
2843.00,0.0126
2830.00,0.0049
2817.00,0.0038
2804.00,0.0035
2791.00,0.0031
2778.00,0.0029
2765.00,0.0027
2752.00,0.0027
2739.00,0.0026
2726.00,0.0027
2713.00,0.0026
2700.00,0.0026
2687.00,0.0026
2674.00,0.0026
2661.00,0.0030
2648.00,0.0031
2635.00,0.0031
2622.00,0.0029
2609.00,0.0028
2596.00,0.0026
2583.00,0.0026
2570.00,0.0022
2557.00,0.0022
2544.00,0.0022
2531.00,0.0021
2518.00,0.0020
2505.00,0.0020
2492.00,0.0020
2479.00,0.0018
2466.00,0.0018
2453.00,0.0019
2440.00,0.0017
2427.00,0.0016
2414.00,0.0015
2401.00,0.0014
2388.00,0.0013
2375.00,0.0014
2362.00,0.0016
2349.00,0.0017
2336.00,0.0021
2323.00,0.0029
2310.00,0.0023
2297.00,0.0024
2284.00,0.0025
2271.00,0.0023
2258.00,0.0021
2245.00,0.0017
2232.00,0.0017
2219.00,0.0016
2206.00,0.0015
2193.00,0.0019
2180.00,0.0008
2167.00,0.0026
2154.00,-0.0014
2141.00,-0.0006
2128.00,-0.0003
2115.00,0.0011
2102.00,0.0011
2089.00,0.0008
2076.00,0.0012
2063.00,0.0010
2050.00,0.0018
2037.00,0.0013
2024.00,0.0002
2011.00,0.0004
1998.00,0.0007
1985.00,0.0018
1972.00,0.0004
1959.00,0.0017
1946.00,0.0037
1933.00,0.0020
1920.00,0.0011
1907.00,0.0010
1894.00,0.0019
1881.00,0.0031
1868.00,0.0036
1855.00,0.0018
1842.00,0.0012
1829.00,0.0017
1816.00,0.0026
1803.00,0.0044
1790.00,0.0027
1777.00,0.0023
1764.00,0.0026
1751.00,0.0043
1738.00,0.0053
1725.00,0.0045
1712.00,0.0039
1699.00,0.0037
1686.00,0.0038
1673.00,0.0045
1660.00,0.0047
1647.00,0.0040
1634.00,0.0039
1621.00,0.0043
1608.00,0.0114
1595.00,0.0144
1582.00,0.0115
1569.00,0.0037
1556.00,0.0035
1543.00,0.0046
1530.00,0.0035
1517.00,0.0033
1504.00,0.0063
1491.00,0.0616
1478.00,0.0081
1465.00,0.0086
1452.00,0.0690
1439.00,0.0260
1426.00,0.0094
1413.00,0.0078
1400.00,0.0073
1387.00,0.0105
1374.00,0.0160
1361.00,0.0150
1348.00,0.0133
1335.00,0.0116
1322.00,0.0122
1309.00,0.0124
1296.00,0.0101
1283.00,0.0093
1270.00,0.0074
1257.00,0.0068
1244.00,0.0073
1231.00,0.0070
1218.00,0.0071
1205.00,0.0088
1192.00,0.0109
1179.00,0.0141
1166.00,0.0092
1153.00,0.0156
1140.00,0.0153
1127.00,0.0104
1114.00,0.0091
1101.00,0.0088
1088.00,0.0106
1075.00,0.0168
1062.00,0.0165
1049.00,0.0113
1036.00,0.0156
1023.00,0.0263
1010.00,0.0140
997.00,0.0110
984.00,0.0126
971.00,0.0127
958.00,0.0126
945.00,0.0125
932.00,0.0093
919.00,0.0102
906.00,0.0241
893.00,0.0088
880.00,0.0062
867.00,0.0056
854.00,0.0063
841.00,0.0122
828.00,0.0056
815.00,0.0054
802.00,0.0065
789.00,0.0120
776.00,0.0303
763.00,0.0798
750.00,0.1035
737.00,0.0435
724.00,0.0122
711.00,0.0274
698.00,0.2800
685.00,0.0965
672.00,0.0433
659.00,0.0256
646.00,0.0162
633.00,0.0181
620.00,0.0219
607.00,0.0169
594.00,0.0187
581.00,0.0242
568.00,0.0412
555.00,0.0588
542.00,0.0932
529.00,0.0658
516.00,0.0325
503.00,0.0209
490.00,0.0164
477.00,0.0144
464.00,0.0125
451.00,0.0114
438.00,0.0112
425.00,0.0092
412.00,0.0089
400.00,0.0108