File: FTIR/Olivia/2025_08_04_1CBN_3PVP90kDa_MC_powder_scan2.csv
Created as New Dataset,Sample 1055 By YargerLab Date Monday, August 04 2025
cm-1,A
4000.00,0.0054
3987.00,0.0054
3974.00,0.0055
3961.00,0.0054
3948.00,0.0054
3935.00,0.0054
3922.00,0.0053
3909.00,0.0054
3896.00,0.0053
3883.00,0.0053
3870.00,0.0053
3857.00,0.0053
3844.00,0.0053
3831.00,0.0052
3818.00,0.0051
3805.00,0.0052
3792.00,0.0051
3779.00,0.0052
3766.00,0.0052
3753.00,0.0052
3740.00,0.0051
3727.00,0.0051
3714.00,0.0050
3701.00,0.0049
3688.00,0.0049
3675.00,0.0049
3662.00,0.0050
3649.00,0.0050
3636.00,0.0052
3623.00,0.0053
3610.00,0.0056
3597.00,0.0058
3584.00,0.0061
3571.00,0.0064
3558.00,0.0070
3545.00,0.0076
3532.00,0.0081
3519.00,0.0088
3506.00,0.0096
3493.00,0.0104
3480.00,0.0118
3467.00,0.0136
3454.00,0.0156
3441.00,0.0180
3428.00,0.0211
3415.00,0.0248
3402.00,0.0271
3389.00,0.0264
3376.00,0.0242
3363.00,0.0222
3350.00,0.0208
3337.00,0.0202
3324.00,0.0203
3311.00,0.0209
3298.00,0.0220
3285.00,0.0234
3272.00,0.0248
3259.00,0.0263
3246.00,0.0275
3233.00,0.0279
3220.00,0.0276
3207.00,0.0262
3194.00,0.0241
3181.00,0.0218
3168.00,0.0195
3155.00,0.0171
3142.00,0.0152
3129.00,0.0137
3116.00,0.0125
3103.00,0.0113
3090.00,0.0111
3077.00,0.0110
3064.00,0.0106
3051.00,0.0108
3038.00,0.0111
3025.00,0.0108
3012.00,0.0100
2999.00,0.0129
2986.00,0.0186
2973.00,0.0279
2960.00,0.0369
2947.00,0.0282
2934.00,0.0455
2921.00,0.0532
2908.00,0.0341
2895.00,0.0251
2882.00,0.0219
2869.00,0.0277
2856.00,0.0420
2843.00,0.0236
2830.00,0.0143
2817.00,0.0115
2804.00,0.0104
2791.00,0.0094
2778.00,0.0088
2765.00,0.0085
2752.00,0.0086
2739.00,0.0089
2726.00,0.0094
2713.00,0.0088
2700.00,0.0087
2687.00,0.0082
2674.00,0.0082
2661.00,0.0087
2648.00,0.0088
2635.00,0.0085
2622.00,0.0080
2609.00,0.0079
2596.00,0.0081
2583.00,0.0081
2570.00,0.0079
2557.00,0.0076
2544.00,0.0075
2531.00,0.0074
2518.00,0.0072
2505.00,0.0068
2492.00,0.0067
2479.00,0.0065
2466.00,0.0064
2453.00,0.0065
2440.00,0.0063
2427.00,0.0062
2414.00,0.0062
2401.00,0.0060
2388.00,0.0059
2375.00,0.0057
2362.00,0.0056
2349.00,0.0058
2336.00,0.0058
2323.00,0.0071
2310.00,0.0063
2297.00,0.0065
2284.00,0.0069
2271.00,0.0062
2258.00,0.0057
2245.00,0.0058
2232.00,0.0057
2219.00,0.0056
2206.00,0.0057
2193.00,0.0054
2180.00,0.0053
2167.00,0.0064
2154.00,0.0035
2141.00,0.0038
2128.00,0.0043
2115.00,0.0050
2102.00,0.0049
2089.00,0.0047
2076.00,0.0052
2063.00,0.0048
2050.00,0.0051
2037.00,0.0050
2024.00,0.0045
2011.00,0.0037
1998.00,0.0046
1985.00,0.0053
1972.00,0.0039
1959.00,0.0034
1946.00,0.0041
1933.00,0.0045
1920.00,0.0048
1907.00,0.0064
1894.00,0.0055
1881.00,0.0049
1868.00,0.0049
1855.00,0.0051
1842.00,0.0054
1829.00,0.0049
1816.00,0.0049
1803.00,0.0053
1790.00,0.0055
1777.00,0.0058
1764.00,0.0059
1751.00,0.0059
1738.00,0.0059
1725.00,0.0071
1712.00,0.0083
1699.00,0.0109
1686.00,0.0192
1673.00,0.0264
1660.00,0.0323
1647.00,0.0333
1634.00,0.0332
1621.00,0.0760
1608.00,0.0561
1595.00,0.0286
1582.00,0.0582
1569.00,0.0349
1556.00,0.0165
1543.00,0.0134
1530.00,0.0123
1517.00,0.0157
1504.00,0.0211
1491.00,0.0311
1478.00,0.0171
1465.00,0.0427
1452.00,0.0376
1439.00,0.0531
1426.00,0.0643
1413.00,0.0470
1400.00,0.0709
1387.00,0.0481
1374.00,0.0378
1361.00,0.0562
1348.00,0.0429
1335.00,0.0314
1322.00,0.0329
1309.00,0.0313
1296.00,0.0524
1283.00,0.0635
1270.00,0.0407
1257.00,0.0289
1244.00,0.0416
1231.00,0.0569
1218.00,0.0423
1205.00,0.0339
1192.00,0.0612
1179.00,0.0267
1166.00,0.0250
1153.00,0.0605
1140.00,0.0245
1127.00,0.0735
1114.00,0.0330
1101.00,0.0460
1088.00,0.0214
1075.00,0.0212
1062.00,0.0377
1049.00,0.0990
1036.00,0.0481
1023.00,0.0716
1010.00,0.0305
997.00,0.0377
984.00,0.0222
971.00,0.0206
958.00,0.0187
945.00,0.0168
932.00,0.0239
919.00,0.0241
906.00,0.0168
893.00,0.0239
880.00,0.0208
867.00,0.0554
854.00,0.0401
841.00,0.0368
828.00,0.0392
815.00,0.0741
802.00,0.0197
789.00,0.0179
776.00,0.0237
763.00,0.0223
750.00,0.0242
737.00,0.0419
724.00,0.0363
711.00,0.0360
698.00,0.0395
685.00,0.0408
672.00,0.0500
659.00,0.0503
646.00,0.0457
633.00,0.0436
620.00,0.0506
607.00,0.0501
594.00,0.0609
581.00,0.0602
568.00,0.0575
555.00,0.0615
542.00,0.0649
529.00,0.0655
516.00,0.0507
503.00,0.0517
490.00,0.0522
477.00,0.0483
464.00,0.0471
451.00,0.0470
438.00,0.0462
425.00,0.0443
412.00,0.0445
400.00,0.0438