File: FTIR/Olivia/2025_07_23_Polystyrene_Std_scan3.csv
Created as New Dataset,Sample 880 By YargerLab Date Wednesday, July 23 2025
cm-1,A
4000.00,0.0009
3987.00,0.0008
3974.00,0.0008
3961.00,0.0007
3948.00,0.0007
3935.00,0.0008
3922.00,0.0008
3909.00,0.0007
3896.00,0.0008
3883.00,0.0006
3870.00,0.0008
3857.00,0.0009
3844.00,0.0008
3831.00,0.0008
3818.00,0.0009
3805.00,0.0009
3792.00,0.0008
3779.00,0.0008
3766.00,0.0009
3753.00,0.0010
3740.00,0.0008
3727.00,0.0007
3714.00,0.0007
3701.00,0.0007
3688.00,0.0007
3675.00,0.0009
3662.00,0.0008
3649.00,0.0010
3636.00,0.0008
3623.00,0.0008
3610.00,0.0009
3597.00,0.0009
3584.00,0.0010
3571.00,0.0009
3558.00,0.0011
3545.00,0.0012
3532.00,0.0013
3519.00,0.0014
3506.00,0.0013
3493.00,0.0014
3480.00,0.0014
3467.00,0.0015
3454.00,0.0015
3441.00,0.0016
3428.00,0.0016
3415.00,0.0015
3402.00,0.0015
3389.00,0.0016
3376.00,0.0016
3363.00,0.0015
3350.00,0.0014
3337.00,0.0014
3324.00,0.0014
3311.00,0.0015
3298.00,0.0014
3285.00,0.0014
3272.00,0.0013
3259.00,0.0013
3246.00,0.0013
3233.00,0.0012
3220.00,0.0012
3207.00,0.0014
3194.00,0.0013
3181.00,0.0012
3168.00,0.0013
3155.00,0.0012
3142.00,0.0011
3129.00,0.0011
3116.00,0.0016
3103.00,0.0033
3090.00,0.0051
3077.00,0.0067
3064.00,0.0104
3051.00,0.0071
3038.00,0.0085
3025.00,0.0221
3012.00,0.0061
2999.00,0.0059
2986.00,0.0034
2973.00,0.0036
2960.00,0.0055
2947.00,0.0103
2934.00,0.0206
2921.00,0.0275
2908.00,0.0208
2895.00,0.0125
2882.00,0.0088
2869.00,0.0071
2856.00,0.0108
2843.00,0.0096
2830.00,0.0035
2817.00,0.0026
2804.00,0.0023
2791.00,0.0020
2778.00,0.0020
2765.00,0.0017
2752.00,0.0017
2739.00,0.0016
2726.00,0.0017
2713.00,0.0016
2700.00,0.0016
2687.00,0.0016
2674.00,0.0016
2661.00,0.0019
2648.00,0.0021
2635.00,0.0022
2622.00,0.0020
2609.00,0.0018
2596.00,0.0017
2583.00,0.0015
2570.00,0.0013
2557.00,0.0013
2544.00,0.0012
2531.00,0.0012
2518.00,0.0013
2505.00,0.0012
2492.00,0.0010
2479.00,0.0010
2466.00,0.0010
2453.00,0.0010
2440.00,0.0009
2427.00,0.0007
2414.00,0.0006
2401.00,0.0006
2388.00,0.0006
2375.00,0.0007
2362.00,0.0009
2349.00,0.0011
2336.00,0.0015
2323.00,0.0026
2310.00,0.0018
2297.00,0.0017
2284.00,0.0020
2271.00,0.0013
2258.00,0.0012
2245.00,0.0011
2232.00,0.0007
2219.00,0.0010
2206.00,0.0007
2193.00,0.0011
2180.00,0.0007
2167.00,0.0014
2154.00,-0.0022
2141.00,-0.0009
2128.00,-0.0010
2115.00,0.0004
2102.00,0.0005
2089.00,0.0004
2076.00,0.0004
2063.00,0.0000
2050.00,0.0007
2037.00,0.0004
2024.00,-0.0007
2011.00,-0.0007
1998.00,-0.0002
1985.00,0.0015
1972.00,-0.0001
1959.00,0.0005
1946.00,0.0028
1933.00,0.0014
1920.00,0.0004
1907.00,0.0002
1894.00,0.0011
1881.00,0.0021
1868.00,0.0025
1855.00,0.0011
1842.00,0.0006
1829.00,0.0011
1816.00,0.0018
1803.00,0.0032
1790.00,0.0020
1777.00,0.0018
1764.00,0.0023
1751.00,0.0036
1738.00,0.0044
1725.00,0.0037
1712.00,0.0030
1699.00,0.0028
1686.00,0.0032
1673.00,0.0038
1660.00,0.0035
1647.00,0.0030
1634.00,0.0027
1621.00,0.0029
1608.00,0.0093
1595.00,0.0108
1582.00,0.0088
1569.00,0.0027
1556.00,0.0026
1543.00,0.0036
1530.00,0.0024
1517.00,0.0021
1504.00,0.0049
1491.00,0.0449
1478.00,0.0063
1465.00,0.0066
1452.00,0.0529
1439.00,0.0196
1426.00,0.0065
1413.00,0.0049
1400.00,0.0047
1387.00,0.0077
1374.00,0.0119
1361.00,0.0113
1348.00,0.0101
1335.00,0.0092
1322.00,0.0096
1309.00,0.0098
1296.00,0.0081
1283.00,0.0074
1270.00,0.0059
1257.00,0.0054
1244.00,0.0056
1231.00,0.0055
1218.00,0.0056
1205.00,0.0070
1192.00,0.0085
1179.00,0.0107
1166.00,0.0067
1153.00,0.0108
1140.00,0.0050
1127.00,0.0048
1114.00,0.0062
1101.00,0.0062
1088.00,0.0075
1075.00,0.0121
1062.00,0.0119
1049.00,0.0082
1036.00,0.0115
1023.00,0.0185
1010.00,0.0103
997.00,0.0082
984.00,0.0094
971.00,0.0093
958.00,0.0089
945.00,0.0087
932.00,0.0064
919.00,0.0077
906.00,0.0174
893.00,0.0069
880.00,0.0050
867.00,0.0045
854.00,0.0050
841.00,0.0093
828.00,0.0044
815.00,0.0042
802.00,0.0047
789.00,0.0093
776.00,0.0231
763.00,0.0583
750.00,0.0742
737.00,0.0328
724.00,0.0093
711.00,0.0213
698.00,0.1773
685.00,0.0694
672.00,0.0331
659.00,0.0206
646.00,0.0141
633.00,0.0154
620.00,0.0179
607.00,0.0142
594.00,0.0156
581.00,0.0196
568.00,0.0313
555.00,0.0444
542.00,0.0674
529.00,0.0484
516.00,0.0254
503.00,0.0175
490.00,0.0141
477.00,0.0124
464.00,0.0104
451.00,0.0101
438.00,0.0097
425.00,0.0095
412.00,0.0091
400.00,0.0103