File: FTIR/Olivia/2025_08_04_1CBN_3PVP90kDa_MC_powder_scan3.csv
Created as New Dataset,Sample 1056 By YargerLab Date Monday, August 04 2025
cm-1,A
4000.00,0.0053
3987.00,0.0053
3974.00,0.0053
3961.00,0.0052
3948.00,0.0052
3935.00,0.0053
3922.00,0.0053
3909.00,0.0053
3896.00,0.0051
3883.00,0.0051
3870.00,0.0052
3857.00,0.0051
3844.00,0.0051
3831.00,0.0051
3818.00,0.0050
3805.00,0.0050
3792.00,0.0050
3779.00,0.0050
3766.00,0.0051
3753.00,0.0051
3740.00,0.0050
3727.00,0.0050
3714.00,0.0049
3701.00,0.0049
3688.00,0.0048
3675.00,0.0048
3662.00,0.0049
3649.00,0.0050
3636.00,0.0051
3623.00,0.0053
3610.00,0.0057
3597.00,0.0058
3584.00,0.0061
3571.00,0.0065
3558.00,0.0070
3545.00,0.0077
3532.00,0.0083
3519.00,0.0089
3506.00,0.0097
3493.00,0.0105
3480.00,0.0118
3467.00,0.0135
3454.00,0.0154
3441.00,0.0177
3428.00,0.0207
3415.00,0.0242
3402.00,0.0262
3389.00,0.0254
3376.00,0.0233
3363.00,0.0214
3350.00,0.0202
3337.00,0.0197
3324.00,0.0197
3311.00,0.0204
3298.00,0.0214
3285.00,0.0227
3272.00,0.0240
3259.00,0.0252
3246.00,0.0264
3233.00,0.0267
3220.00,0.0263
3207.00,0.0248
3194.00,0.0227
3181.00,0.0206
3168.00,0.0184
3155.00,0.0162
3142.00,0.0144
3129.00,0.0130
3116.00,0.0119
3103.00,0.0107
3090.00,0.0106
3077.00,0.0105
3064.00,0.0102
3051.00,0.0104
3038.00,0.0106
3025.00,0.0104
3012.00,0.0097
2999.00,0.0125
2986.00,0.0178
2973.00,0.0264
2960.00,0.0350
2947.00,0.0270
2934.00,0.0432
2921.00,0.0495
2908.00,0.0316
2895.00,0.0236
2882.00,0.0207
2869.00,0.0261
2856.00,0.0390
2843.00,0.0216
2830.00,0.0133
2817.00,0.0108
2804.00,0.0098
2791.00,0.0089
2778.00,0.0084
2765.00,0.0081
2752.00,0.0082
2739.00,0.0085
2726.00,0.0089
2713.00,0.0084
2700.00,0.0082
2687.00,0.0079
2674.00,0.0078
2661.00,0.0083
2648.00,0.0083
2635.00,0.0081
2622.00,0.0076
2609.00,0.0076
2596.00,0.0077
2583.00,0.0078
2570.00,0.0075
2557.00,0.0072
2544.00,0.0072
2531.00,0.0071
2518.00,0.0069
2505.00,0.0066
2492.00,0.0063
2479.00,0.0062
2466.00,0.0062
2453.00,0.0063
2440.00,0.0061
2427.00,0.0060
2414.00,0.0059
2401.00,0.0058
2388.00,0.0057
2375.00,0.0055
2362.00,0.0055
2349.00,0.0057
2336.00,0.0058
2323.00,0.0068
2310.00,0.0059
2297.00,0.0062
2284.00,0.0066
2271.00,0.0059
2258.00,0.0055
2245.00,0.0056
2232.00,0.0056
2219.00,0.0054
2206.00,0.0057
2193.00,0.0056
2180.00,0.0052
2167.00,0.0061
2154.00,0.0036
2141.00,0.0038
2128.00,0.0042
2115.00,0.0050
2102.00,0.0047
2089.00,0.0046
2076.00,0.0051
2063.00,0.0046
2050.00,0.0050
2037.00,0.0049
2024.00,0.0044
2011.00,0.0039
1998.00,0.0040
1985.00,0.0049
1972.00,0.0036
1959.00,0.0035
1946.00,0.0041
1933.00,0.0043
1920.00,0.0048
1907.00,0.0061
1894.00,0.0055
1881.00,0.0048
1868.00,0.0048
1855.00,0.0051
1842.00,0.0052
1829.00,0.0049
1816.00,0.0048
1803.00,0.0052
1790.00,0.0053
1777.00,0.0057
1764.00,0.0057
1751.00,0.0058
1738.00,0.0058
1725.00,0.0069
1712.00,0.0082
1699.00,0.0107
1686.00,0.0191
1673.00,0.0267
1660.00,0.0333
1647.00,0.0345
1634.00,0.0335
1621.00,0.0713
1608.00,0.0516
1595.00,0.0267
1582.00,0.0533
1569.00,0.0317
1556.00,0.0153
1543.00,0.0126
1530.00,0.0116
1517.00,0.0146
1504.00,0.0197
1491.00,0.0287
1478.00,0.0160
1465.00,0.0396
1452.00,0.0351
1439.00,0.0495
1426.00,0.0597
1413.00,0.0438
1400.00,0.0645
1387.00,0.0435
1374.00,0.0345
1361.00,0.0509
1348.00,0.0385
1335.00,0.0284
1322.00,0.0302
1309.00,0.0288
1296.00,0.0481
1283.00,0.0587
1270.00,0.0388
1257.00,0.0273
1244.00,0.0381
1231.00,0.0514
1218.00,0.0387
1205.00,0.0309
1192.00,0.0541
1179.00,0.0243
1166.00,0.0231
1153.00,0.0536
1140.00,0.0221
1127.00,0.0641
1114.00,0.0292
1101.00,0.0404
1088.00,0.0194
1075.00,0.0194
1062.00,0.0342
1049.00,0.0868
1036.00,0.0421
1023.00,0.0617
1010.00,0.0272
997.00,0.0330
984.00,0.0200
971.00,0.0185
958.00,0.0169
945.00,0.0152
932.00,0.0215
919.00,0.0215
906.00,0.0154
893.00,0.0215
880.00,0.0189
867.00,0.0482
854.00,0.0356
841.00,0.0329
828.00,0.0347
815.00,0.0636
802.00,0.0180
789.00,0.0167
776.00,0.0215
763.00,0.0205
750.00,0.0225
737.00,0.0378
724.00,0.0327
711.00,0.0322
698.00,0.0354
685.00,0.0368
672.00,0.0448
659.00,0.0455
646.00,0.0418
633.00,0.0400
620.00,0.0457
607.00,0.0451
594.00,0.0544
581.00,0.0543
568.00,0.0519
555.00,0.0547
542.00,0.0573
529.00,0.0579
516.00,0.0453
503.00,0.0459
490.00,0.0461
477.00,0.0434
464.00,0.0418
451.00,0.0419
438.00,0.0413
425.00,0.0396
412.00,0.0412
400.00,0.0385