File: FTIR/Olivia/2025_08_05_silicon_dish_scan1.csv
Created as New Dataset,Sample 1072 By YargerLab Date Tuesday, August 05 2025
cm-1,A
4000.00,0.0009
3987.00,0.0009
3974.00,0.0008
3961.00,0.0009
3948.00,0.0008
3935.00,0.0008
3922.00,0.0008
3909.00,0.0008
3896.00,0.0008
3883.00,0.0008
3870.00,0.0007
3857.00,0.0008
3844.00,0.0009
3831.00,0.0008
3818.00,0.0008
3805.00,0.0009
3792.00,0.0011
3779.00,0.0013
3766.00,0.0013
3753.00,0.0013
3740.00,0.0012
3727.00,0.0014
3714.00,0.0018
3701.00,0.0025
3688.00,0.0029
3675.00,0.0038
3662.00,0.0049
3649.00,0.0054
3636.00,0.0058
3623.00,0.0059
3610.00,0.0060
3597.00,0.0063
3584.00,0.0066
3571.00,0.0068
3558.00,0.0072
3545.00,0.0077
3532.00,0.0083
3519.00,0.0088
3506.00,0.0093
3493.00,0.0097
3480.00,0.0101
3467.00,0.0105
3454.00,0.0109
3441.00,0.0111
3428.00,0.0113
3415.00,0.0115
3402.00,0.0115
3389.00,0.0116
3376.00,0.0115
3363.00,0.0115
3350.00,0.0113
3337.00,0.0113
3324.00,0.0111
3311.00,0.0111
3298.00,0.0109
3285.00,0.0108
3272.00,0.0107
3259.00,0.0106
3246.00,0.0104
3233.00,0.0103
3220.00,0.0101
3207.00,0.0098
3194.00,0.0096
3181.00,0.0094
3168.00,0.0091
3155.00,0.0089
3142.00,0.0087
3129.00,0.0085
3116.00,0.0085
3103.00,0.0082
3090.00,0.0079
3077.00,0.0077
3064.00,0.0076
3051.00,0.0073
3038.00,0.0071
3025.00,0.0070
3012.00,0.0070
2999.00,0.0076
2986.00,0.0109
2973.00,0.0309
2960.00,0.0594
2947.00,0.0163
2934.00,0.0084
2921.00,0.0059
2908.00,0.0107
2895.00,0.0078
2882.00,0.0057
2869.00,0.0047
2856.00,0.0035
2843.00,0.0037
2830.00,0.0040
2817.00,0.0040
2804.00,0.0039
2791.00,0.0037
2778.00,0.0029
2765.00,0.0026
2752.00,0.0023
2739.00,0.0022
2726.00,0.0021
2713.00,0.0020
2700.00,0.0020
2687.00,0.0019
2674.00,0.0020
2661.00,0.0020
2648.00,0.0018
2635.00,0.0015
2622.00,0.0014
2609.00,0.0013
2596.00,0.0012
2583.00,0.0012
2570.00,0.0011
2557.00,0.0011
2544.00,0.0011
2531.00,0.0012
2518.00,0.0014
2505.00,0.0015
2492.00,0.0013
2479.00,0.0011
2466.00,0.0010
2453.00,0.0010
2440.00,0.0010
2427.00,0.0010
2414.00,0.0009
2401.00,0.0009
2388.00,0.0010
2375.00,0.0010
2362.00,0.0010
2349.00,0.0012
2336.00,0.0012
2323.00,0.0013
2310.00,0.0011
2297.00,0.0010
2284.00,0.0009
2271.00,0.0008
2258.00,0.0006
2245.00,0.0004
2232.00,0.0001
2219.00,-0.0001
2206.00,-0.0005
2193.00,-0.0009
2180.00,-0.0012
2167.00,-0.0015
2154.00,-0.0023
2141.00,-0.0014
2128.00,-0.0007
2115.00,-0.0005
2102.00,-0.0004
2089.00,-0.0006
2076.00,-0.0008
2063.00,-0.0013
2050.00,-0.0016
2037.00,-0.0040
2024.00,-0.0053
2011.00,-0.0048
1998.00,-0.0036
1985.00,-0.0027
1972.00,-0.0025
1959.00,0.0000
1946.00,0.0012
1933.00,0.0014
1920.00,0.0017
1907.00,0.0019
1894.00,0.0025
1881.00,0.0028
1868.00,0.0030
1855.00,0.0028
1842.00,0.0027
1829.00,0.0027
1816.00,0.0027
1803.00,0.0031
1790.00,0.0033
1777.00,0.0037
1764.00,0.0037
1751.00,0.0037
1738.00,0.0039
1725.00,0.0044
1712.00,0.0048
1699.00,0.0057
1686.00,0.0069
1673.00,0.0078
1660.00,0.0086
1647.00,0.0095
1634.00,0.0102
1621.00,0.0101
1608.00,0.0087
1595.00,0.0074
1582.00,0.0065
1569.00,0.0058
1556.00,0.0054
1543.00,0.0056
1530.00,0.0058
1517.00,0.0058
1504.00,0.0059
1491.00,0.0063
1478.00,0.0067
1465.00,0.0067
1452.00,0.0095
1439.00,0.0102
1426.00,0.0112
1413.00,0.0205
1400.00,0.0174
1387.00,0.0101
1374.00,0.0085
1361.00,0.0082
1348.00,0.0084
1335.00,0.0088
1322.00,0.0095
1309.00,0.0113
1296.00,0.0144
1283.00,0.0213
1270.00,0.0623
1257.00,0.2571
1244.00,0.0899
1231.00,0.0966
1218.00,0.1101
1205.00,0.1216
1192.00,0.1321
1179.00,0.1430
1166.00,0.1537
1153.00,0.1642
1140.00,0.1778
1127.00,0.1997
1114.00,0.2491
1101.00,0.3652
1088.00,0.5105
1075.00,0.5978
1062.00,0.6285
1049.00,0.6314
1036.00,0.6414
1023.00,0.7210
1010.00,0.9199
997.00,0.6764
984.00,0.3590
971.00,0.2231
958.00,0.1655
945.00,0.1281
932.00,0.1005
919.00,0.0823
906.00,0.0753
893.00,0.0789
880.00,0.1095
867.00,0.1410
854.00,0.1179
841.00,0.1089
828.00,0.1663
815.00,0.3377
802.00,0.5829
789.00,0.9436
776.00,0.6368
763.00,0.3110
750.00,0.2034
737.00,0.1568
724.00,0.1276
711.00,0.1434
698.00,0.1752
685.00,0.1722
672.00,0.1507
659.00,0.1561
646.00,0.0947
633.00,0.0927
620.00,0.0939
607.00,0.0963
594.00,0.1024
581.00,0.1113
568.00,0.1205
555.00,0.1286
542.00,0.1330
529.00,0.1340
516.00,0.1403
503.00,0.1683
490.00,0.2475
477.00,0.3946
464.00,0.5206
451.00,0.5287
438.00,0.4423
425.00,0.3331
412.00,0.3302
400.00,0.4543