File: FTIR/Olivia/2025_07_29_CBN_PVP90kDa_MC_1to3_Powder_scan2.csv
Created as New Dataset,Sample 955 By YargerLab Date Tuesday, July 29 2025
cm-1,A
4000.00,0.0075
3987.00,0.0075
3974.00,0.0076
3961.00,0.0075
3948.00,0.0076
3935.00,0.0074
3922.00,0.0075
3909.00,0.0075
3896.00,0.0074
3883.00,0.0074
3870.00,0.0073
3857.00,0.0074
3844.00,0.0072
3831.00,0.0072
3818.00,0.0072
3805.00,0.0071
3792.00,0.0073
3779.00,0.0072
3766.00,0.0073
3753.00,0.0071
3740.00,0.0071
3727.00,0.0071
3714.00,0.0070
3701.00,0.0069
3688.00,0.0069
3675.00,0.0067
3662.00,0.0069
3649.00,0.0067
3636.00,0.0069
3623.00,0.0069
3610.00,0.0071
3597.00,0.0071
3584.00,0.0073
3571.00,0.0074
3558.00,0.0077
3545.00,0.0082
3532.00,0.0087
3519.00,0.0093
3506.00,0.0100
3493.00,0.0109
3480.00,0.0124
3467.00,0.0143
3454.00,0.0166
3441.00,0.0193
3428.00,0.0230
3415.00,0.0273
3402.00,0.0301
3389.00,0.0296
3376.00,0.0272
3363.00,0.0249
3350.00,0.0233
3337.00,0.0226
3324.00,0.0227
3311.00,0.0234
3298.00,0.0248
3285.00,0.0264
3272.00,0.0282
3259.00,0.0300
3246.00,0.0317
3233.00,0.0324
3220.00,0.0325
3207.00,0.0312
3194.00,0.0291
3181.00,0.0267
3168.00,0.0243
3155.00,0.0215
3142.00,0.0192
3129.00,0.0175
3116.00,0.0161
3103.00,0.0145
3090.00,0.0143
3077.00,0.0141
3064.00,0.0137
3051.00,0.0138
3038.00,0.0141
3025.00,0.0137
3012.00,0.0125
2999.00,0.0159
2986.00,0.0220
2973.00,0.0334
2960.00,0.0438
2947.00,0.0329
2934.00,0.0539
2921.00,0.0641
2908.00,0.0419
2895.00,0.0310
2882.00,0.0267
2869.00,0.0335
2856.00,0.0511
2843.00,0.0308
2830.00,0.0196
2817.00,0.0162
2804.00,0.0147
2791.00,0.0136
2778.00,0.0127
2765.00,0.0123
2752.00,0.0124
2739.00,0.0127
2726.00,0.0133
2713.00,0.0126
2700.00,0.0123
2687.00,0.0119
2674.00,0.0118
2661.00,0.0124
2648.00,0.0125
2635.00,0.0121
2622.00,0.0115
2609.00,0.0114
2596.00,0.0116
2583.00,0.0117
2570.00,0.0114
2557.00,0.0110
2544.00,0.0108
2531.00,0.0108
2518.00,0.0105
2505.00,0.0100
2492.00,0.0098
2479.00,0.0097
2466.00,0.0095
2453.00,0.0096
2440.00,0.0094
2427.00,0.0092
2414.00,0.0091
2401.00,0.0090
2388.00,0.0089
2375.00,0.0083
2362.00,0.0085
2349.00,0.0085
2336.00,0.0088
2323.00,0.0095
2310.00,0.0086
2297.00,0.0091
2284.00,0.0096
2271.00,0.0089
2258.00,0.0083
2245.00,0.0082
2232.00,0.0085
2219.00,0.0083
2206.00,0.0082
2193.00,0.0082
2180.00,0.0078
2167.00,0.0090
2154.00,0.0055
2141.00,0.0064
2128.00,0.0065
2115.00,0.0072
2102.00,0.0072
2089.00,0.0069
2076.00,0.0074
2063.00,0.0071
2050.00,0.0071
2037.00,0.0068
2024.00,0.0065
2011.00,0.0062
1998.00,0.0064
1985.00,0.0072
1972.00,0.0062
1959.00,0.0058
1946.00,0.0063
1933.00,0.0066
1920.00,0.0070
1907.00,0.0092
1894.00,0.0082
1881.00,0.0072
1868.00,0.0072
1855.00,0.0074
1842.00,0.0077
1829.00,0.0071
1816.00,0.0070
1803.00,0.0073
1790.00,0.0076
1777.00,0.0078
1764.00,0.0078
1751.00,0.0076
1738.00,0.0076
1725.00,0.0087
1712.00,0.0097
1699.00,0.0107
1686.00,0.0142
1673.00,0.0168
1660.00,0.0193
1647.00,0.0187
1634.00,0.0237
1621.00,0.0844
1608.00,0.0639
1595.00,0.0322
1582.00,0.0712
1569.00,0.0437
1556.00,0.0207
1543.00,0.0168
1530.00,0.0148
1517.00,0.0191
1504.00,0.0248
1491.00,0.0364
1478.00,0.0196
1465.00,0.0488
1452.00,0.0425
1439.00,0.0588
1426.00,0.0718
1413.00,0.0513
1400.00,0.0878
1387.00,0.0604
1374.00,0.0453
1361.00,0.0698
1348.00,0.0555
1335.00,0.0400
1322.00,0.0391
1309.00,0.0364
1296.00,0.0604
1283.00,0.0670
1270.00,0.0354
1257.00,0.0266
1244.00,0.0461
1231.00,0.0666
1218.00,0.0468
1205.00,0.0372
1192.00,0.0743
1179.00,0.0298
1166.00,0.0260
1153.00,0.0728
1140.00,0.0281
1127.00,0.0917
1114.00,0.0414
1101.00,0.0573
1088.00,0.0256
1075.00,0.0237
1062.00,0.0445
1049.00,0.1233
1036.00,0.0617
1023.00,0.0938
1010.00,0.0393
997.00,0.0498
984.00,0.0291
971.00,0.0266
958.00,0.0247
945.00,0.0214
932.00,0.0299
919.00,0.0313
906.00,0.0200
893.00,0.0292
880.00,0.0247
867.00,0.0755
854.00,0.0513
841.00,0.0460
828.00,0.0518
815.00,0.1037
802.00,0.0249
789.00,0.0204
776.00,0.0279
763.00,0.0240
750.00,0.0234
737.00,0.0473
724.00,0.0415
711.00,0.0416
698.00,0.0451
685.00,0.0459
672.00,0.0576
659.00,0.0545
646.00,0.0404
633.00,0.0380
620.00,0.0519
607.00,0.0499
594.00,0.0678
581.00,0.0601
568.00,0.0515
555.00,0.0612
542.00,0.0686
529.00,0.0696
516.00,0.0417
503.00,0.0428
490.00,0.0422
477.00,0.0330
464.00,0.0309
451.00,0.0290
438.00,0.0300
425.00,0.0257
412.00,0.0313
400.00,0.0258