File: FTIR/Olivia/2025_08_06_Polystyrene_film_scan3.csv
Created as New Dataset,Sample 1084 By YargerLab Date Wednesday, August 06 2025
cm-1,A
4000.00,0.0004
3987.00,0.0004
3974.00,0.0003
3961.00,0.0004
3948.00,0.0004
3935.00,0.0003
3922.00,0.0004
3909.00,0.0004
3896.00,0.0003
3883.00,0.0003
3870.00,0.0002
3857.00,0.0003
3844.00,0.0003
3831.00,0.0004
3818.00,0.0003
3805.00,0.0003
3792.00,0.0004
3779.00,0.0003
3766.00,0.0003
3753.00,0.0003
3740.00,0.0002
3727.00,0.0002
3714.00,0.0002
3701.00,0.0003
3688.00,0.0002
3675.00,0.0003
3662.00,0.0004
3649.00,0.0004
3636.00,0.0003
3623.00,0.0002
3610.00,0.0001
3597.00,0.0001
3584.00,0.0002
3571.00,0.0002
3558.00,0.0003
3545.00,0.0003
3532.00,0.0004
3519.00,0.0004
3506.00,0.0004
3493.00,0.0004
3480.00,0.0005
3467.00,0.0005
3454.00,0.0005
3441.00,0.0005
3428.00,0.0005
3415.00,0.0004
3402.00,0.0005
3389.00,0.0004
3376.00,0.0004
3363.00,0.0004
3350.00,0.0004
3337.00,0.0004
3324.00,0.0004
3311.00,0.0004
3298.00,0.0003
3285.00,0.0003
3272.00,0.0004
3259.00,0.0003
3246.00,0.0003
3233.00,0.0003
3220.00,0.0003
3207.00,0.0003
3194.00,0.0003
3181.00,0.0002
3168.00,0.0003
3155.00,0.0003
3142.00,0.0003
3129.00,0.0002
3116.00,0.0004
3103.00,0.0014
3090.00,0.0018
3077.00,0.0031
3064.00,0.0044
3051.00,0.0034
3038.00,0.0035
3025.00,0.0107
3012.00,0.0028
2999.00,0.0030
2986.00,0.0016
2973.00,0.0017
2960.00,0.0016
2947.00,0.0034
2934.00,0.0074
2921.00,0.0106
2908.00,0.0086
2895.00,0.0049
2882.00,0.0033
2869.00,0.0022
2856.00,0.0032
2843.00,0.0037
2830.00,0.0011
2817.00,0.0008
2804.00,0.0007
2791.00,0.0006
2778.00,0.0006
2765.00,0.0005
2752.00,0.0005
2739.00,0.0005
2726.00,0.0005
2713.00,0.0005
2700.00,0.0005
2687.00,0.0005
2674.00,0.0006
2661.00,0.0009
2648.00,0.0011
2635.00,0.0010
2622.00,0.0009
2609.00,0.0008
2596.00,0.0008
2583.00,0.0007
2570.00,0.0005
2557.00,0.0005
2544.00,0.0004
2531.00,0.0004
2518.00,0.0004
2505.00,0.0004
2492.00,0.0003
2479.00,0.0003
2466.00,0.0004
2453.00,0.0004
2440.00,0.0002
2427.00,0.0002
2414.00,0.0001
2401.00,-0.0000
2388.00,-0.0001
2375.00,-0.0002
2362.00,-0.0001
2349.00,0.0000
2336.00,0.0003
2323.00,0.0013
2310.00,0.0007
2297.00,0.0008
2284.00,0.0011
2271.00,0.0007
2258.00,0.0005
2245.00,0.0003
2232.00,0.0005
2219.00,0.0005
2206.00,0.0003
2193.00,0.0006
2180.00,-0.0001
2167.00,0.0012
2154.00,-0.0018
2141.00,-0.0015
2128.00,-0.0009
2115.00,-0.0000
2102.00,0.0002
2089.00,0.0001
2076.00,0.0002
2063.00,-0.0000
2050.00,0.0007
2037.00,0.0006
2024.00,-0.0005
2011.00,-0.0003
1998.00,-0.0004
1985.00,0.0005
1972.00,-0.0006
1959.00,-0.0004
1946.00,0.0008
1933.00,0.0002
1920.00,-0.0003
1907.00,-0.0004
1894.00,0.0001
1881.00,0.0008
1868.00,0.0010
1855.00,0.0003
1842.00,-0.0000
1829.00,0.0002
1816.00,0.0005
1803.00,0.0015
1790.00,0.0008
1777.00,0.0007
1764.00,0.0009
1751.00,0.0016
1738.00,0.0017
1725.00,0.0013
1712.00,0.0010
1699.00,0.0006
1686.00,-0.0002
1673.00,0.0002
1660.00,0.0005
1647.00,0.0006
1634.00,0.0007
1621.00,0.0010
1608.00,0.0040
1595.00,0.0059
1582.00,0.0045
1569.00,0.0011
1556.00,0.0011
1543.00,0.0020
1530.00,0.0013
1517.00,0.0013
1504.00,0.0024
1491.00,0.0285
1478.00,0.0034
1465.00,0.0030
1452.00,0.0299
1439.00,0.0108
1426.00,0.0026
1413.00,0.0021
1400.00,0.0024
1387.00,0.0043
1374.00,0.0066
1361.00,0.0060
1348.00,0.0054
1335.00,0.0048
1322.00,0.0051
1309.00,0.0053
1296.00,0.0041
1283.00,0.0034
1270.00,0.0029
1257.00,0.0028
1244.00,0.0030
1231.00,0.0028
1218.00,0.0029
1205.00,0.0039
1192.00,0.0050
1179.00,0.0067
1166.00,0.0041
1153.00,0.0072
1140.00,0.0031
1127.00,0.0028
1114.00,0.0038
1101.00,0.0039
1088.00,0.0051
1075.00,0.0083
1062.00,0.0081
1049.00,0.0053
1036.00,0.0073
1023.00,0.0129
1010.00,0.0069
997.00,0.0056
984.00,0.0065
971.00,0.0067
958.00,0.0067
945.00,0.0064
932.00,0.0046
919.00,0.0052
906.00,0.0125
893.00,0.0045
880.00,0.0032
867.00,0.0027
854.00,0.0031
841.00,0.0064
828.00,0.0029
815.00,0.0027
802.00,0.0031
789.00,0.0063
776.00,0.0162
763.00,0.0424
750.00,0.0548
737.00,0.0235
724.00,0.0064
711.00,0.0148
698.00,0.1502
685.00,0.0580
672.00,0.0256
659.00,0.0153
646.00,0.0094
633.00,0.0104
620.00,0.0125
607.00,0.0097
594.00,0.0110
581.00,0.0140
568.00,0.0238
555.00,0.0344
542.00,0.0545
529.00,0.0400
516.00,0.0203
503.00,0.0136
490.00,0.0110
477.00,0.0099
464.00,0.0087
451.00,0.0073
438.00,0.0078
425.00,0.0076
412.00,0.0058
400.00,0.0083