File: FTIR/Olivia/2025_07_28_Polystyrene_Std_scan2.csv
Created as New Dataset,Sample 933 By YargerLab Date Monday, July 28 2025
cm-1,A
4000.00,0.0033
3987.00,0.0032
3974.00,0.0032
3961.00,0.0032
3948.00,0.0031
3935.00,0.0031
3922.00,0.0031
3909.00,0.0031
3896.00,0.0030
3883.00,0.0030
3870.00,0.0029
3857.00,0.0030
3844.00,0.0030
3831.00,0.0029
3818.00,0.0029
3805.00,0.0030
3792.00,0.0031
3779.00,0.0031
3766.00,0.0030
3753.00,0.0028
3740.00,0.0028
3727.00,0.0028
3714.00,0.0029
3701.00,0.0031
3688.00,0.0027
3675.00,0.0028
3662.00,0.0029
3649.00,0.0029
3636.00,0.0031
3623.00,0.0031
3610.00,0.0030
3597.00,0.0032
3584.00,0.0032
3571.00,0.0034
3558.00,0.0036
3545.00,0.0037
3532.00,0.0038
3519.00,0.0038
3506.00,0.0038
3493.00,0.0038
3480.00,0.0040
3467.00,0.0040
3454.00,0.0040
3441.00,0.0041
3428.00,0.0041
3415.00,0.0041
3402.00,0.0041
3389.00,0.0040
3376.00,0.0040
3363.00,0.0039
3350.00,0.0039
3337.00,0.0038
3324.00,0.0037
3311.00,0.0037
3298.00,0.0037
3285.00,0.0038
3272.00,0.0036
3259.00,0.0036
3246.00,0.0035
3233.00,0.0033
3220.00,0.0034
3207.00,0.0035
3194.00,0.0034
3181.00,0.0033
3168.00,0.0035
3155.00,0.0033
3142.00,0.0032
3129.00,0.0033
3116.00,0.0037
3103.00,0.0060
3090.00,0.0081
3077.00,0.0104
3064.00,0.0150
3051.00,0.0110
3038.00,0.0125
3025.00,0.0311
3012.00,0.0098
2999.00,0.0089
2986.00,0.0050
2973.00,0.0052
2960.00,0.0077
2947.00,0.0138
2934.00,0.0273
2921.00,0.0372
2908.00,0.0289
2895.00,0.0177
2882.00,0.0128
2869.00,0.0106
2856.00,0.0152
2843.00,0.0145
2830.00,0.0064
2817.00,0.0053
2804.00,0.0049
2791.00,0.0044
2778.00,0.0044
2765.00,0.0041
2752.00,0.0040
2739.00,0.0040
2726.00,0.0040
2713.00,0.0039
2700.00,0.0039
2687.00,0.0039
2674.00,0.0039
2661.00,0.0042
2648.00,0.0044
2635.00,0.0045
2622.00,0.0042
2609.00,0.0041
2596.00,0.0039
2583.00,0.0038
2570.00,0.0036
2557.00,0.0035
2544.00,0.0034
2531.00,0.0034
2518.00,0.0033
2505.00,0.0033
2492.00,0.0032
2479.00,0.0031
2466.00,0.0030
2453.00,0.0032
2440.00,0.0029
2427.00,0.0027
2414.00,0.0027
2401.00,0.0025
2388.00,0.0025
2375.00,0.0025
2362.00,0.0027
2349.00,0.0031
2336.00,0.0035
2323.00,0.0046
2310.00,0.0038
2297.00,0.0036
2284.00,0.0038
2271.00,0.0033
2258.00,0.0031
2245.00,0.0030
2232.00,0.0028
2219.00,0.0027
2206.00,0.0026
2193.00,0.0027
2180.00,0.0023
2167.00,0.0033
2154.00,-0.0004
2141.00,0.0004
2128.00,0.0008
2115.00,0.0022
2102.00,0.0021
2089.00,0.0020
2076.00,0.0022
2063.00,0.0017
2050.00,0.0026
2037.00,0.0022
2024.00,0.0010
2011.00,0.0014
1998.00,0.0015
1985.00,0.0032
1972.00,0.0013
1959.00,0.0026
1946.00,0.0049
1933.00,0.0034
1920.00,0.0021
1907.00,0.0022
1894.00,0.0031
1881.00,0.0043
1868.00,0.0051
1855.00,0.0030
1842.00,0.0022
1829.00,0.0028
1816.00,0.0039
1803.00,0.0059
1790.00,0.0039
1777.00,0.0035
1764.00,0.0039
1751.00,0.0060
1738.00,0.0073
1725.00,0.0062
1712.00,0.0053
1699.00,0.0048
1686.00,0.0049
1673.00,0.0054
1660.00,0.0049
1647.00,0.0045
1634.00,0.0045
1621.00,0.0050
1608.00,0.0134
1595.00,0.0162
1582.00,0.0131
1569.00,0.0050
1556.00,0.0048
1543.00,0.0061
1530.00,0.0046
1517.00,0.0044
1504.00,0.0075
1491.00,0.0645
1478.00,0.0098
1465.00,0.0099
1452.00,0.0751
1439.00,0.0279
1426.00,0.0101
1413.00,0.0079
1400.00,0.0072
1387.00,0.0112
1374.00,0.0168
1361.00,0.0158
1348.00,0.0143
1335.00,0.0130
1322.00,0.0136
1309.00,0.0136
1296.00,0.0112
1283.00,0.0103
1270.00,0.0086
1257.00,0.0079
1244.00,0.0083
1231.00,0.0081
1218.00,0.0084
1205.00,0.0104
1192.00,0.0127
1179.00,0.0163
1166.00,0.0114
1153.00,0.0169
1140.00,0.0089
1127.00,0.0085
1114.00,0.0112
1101.00,0.0111
1088.00,0.0128
1075.00,0.0191
1062.00,0.0187
1049.00,0.0137
1036.00,0.0186
1023.00,0.0286
1010.00,0.0164
997.00,0.0129
984.00,0.0142
971.00,0.0135
958.00,0.0126
945.00,0.0120
932.00,0.0092
919.00,0.0108
906.00,0.0251
893.00,0.0095
880.00,0.0073
867.00,0.0064
854.00,0.0069
841.00,0.0130
828.00,0.0062
815.00,0.0061
802.00,0.0071
789.00,0.0129
776.00,0.0317
763.00,0.0827
750.00,0.1080
737.00,0.0460
724.00,0.0129
711.00,0.0292
698.00,0.2741
685.00,0.1004
672.00,0.0456
659.00,0.0277
646.00,0.0182
633.00,0.0197
620.00,0.0239
607.00,0.0188
594.00,0.0208
581.00,0.0264
568.00,0.0429
555.00,0.0617
542.00,0.0969
529.00,0.0688
516.00,0.0344
503.00,0.0234
490.00,0.0183
477.00,0.0159
464.00,0.0154
451.00,0.0144
438.00,0.0129
425.00,0.0126
412.00,0.0114
400.00,0.0094