File: FTIR/Olivia/2025_08_06_1CBN_3PVP10_MP_Powder_Scan2.csv
Created as New Dataset,Sample 1089 By YargerLab Date Wednesday, August 06 2025
cm-1,A
4000.00,0.0084
3987.00,0.0084
3974.00,0.0085
3961.00,0.0085
3948.00,0.0083
3935.00,0.0084
3922.00,0.0083
3909.00,0.0083
3896.00,0.0082
3883.00,0.0081
3870.00,0.0080
3857.00,0.0080
3844.00,0.0082
3831.00,0.0082
3818.00,0.0080
3805.00,0.0080
3792.00,0.0082
3779.00,0.0082
3766.00,0.0081
3753.00,0.0079
3740.00,0.0079
3727.00,0.0078
3714.00,0.0080
3701.00,0.0080
3688.00,0.0081
3675.00,0.0082
3662.00,0.0087
3649.00,0.0086
3636.00,0.0096
3623.00,0.0102
3610.00,0.0111
3597.00,0.0123
3584.00,0.0136
3571.00,0.0151
3558.00,0.0168
3545.00,0.0184
3532.00,0.0197
3519.00,0.0209
3506.00,0.0218
3493.00,0.0230
3480.00,0.0243
3467.00,0.0257
3454.00,0.0274
3441.00,0.0291
3428.00,0.0314
3415.00,0.0339
3402.00,0.0355
3389.00,0.0346
3376.00,0.0326
3363.00,0.0305
3350.00,0.0289
3337.00,0.0280
3324.00,0.0276
3311.00,0.0276
3298.00,0.0280
3285.00,0.0289
3272.00,0.0291
3259.00,0.0298
3246.00,0.0301
3233.00,0.0300
3220.00,0.0294
3207.00,0.0280
3194.00,0.0262
3181.00,0.0241
3168.00,0.0223
3155.00,0.0202
3142.00,0.0184
3129.00,0.0171
3116.00,0.0160
3103.00,0.0150
3090.00,0.0146
3077.00,0.0144
3064.00,0.0140
3051.00,0.0139
3038.00,0.0141
3025.00,0.0139
3012.00,0.0139
2999.00,0.0180
2986.00,0.0251
2973.00,0.0347
2960.00,0.0429
2947.00,0.0367
2934.00,0.0490
2921.00,0.0541
2908.00,0.0389
2895.00,0.0323
2882.00,0.0300
2869.00,0.0334
2856.00,0.0419
2843.00,0.0269
2830.00,0.0188
2817.00,0.0156
2804.00,0.0142
2791.00,0.0133
2778.00,0.0127
2765.00,0.0123
2752.00,0.0123
2739.00,0.0125
2726.00,0.0127
2713.00,0.0122
2700.00,0.0120
2687.00,0.0117
2674.00,0.0116
2661.00,0.0121
2648.00,0.0122
2635.00,0.0120
2622.00,0.0115
2609.00,0.0113
2596.00,0.0115
2583.00,0.0115
2570.00,0.0113
2557.00,0.0109
2544.00,0.0108
2531.00,0.0107
2518.00,0.0105
2505.00,0.0102
2492.00,0.0101
2479.00,0.0099
2466.00,0.0099
2453.00,0.0101
2440.00,0.0098
2427.00,0.0097
2414.00,0.0097
2401.00,0.0096
2388.00,0.0093
2375.00,0.0089
2362.00,0.0089
2349.00,0.0093
2336.00,0.0095
2323.00,0.0107
2310.00,0.0096
2297.00,0.0099
2284.00,0.0105
2271.00,0.0099
2258.00,0.0094
2245.00,0.0096
2232.00,0.0096
2219.00,0.0092
2206.00,0.0095
2193.00,0.0095
2180.00,0.0091
2167.00,0.0103
2154.00,0.0067
2141.00,0.0077
2128.00,0.0080
2115.00,0.0091
2102.00,0.0087
2089.00,0.0089
2076.00,0.0090
2063.00,0.0085
2050.00,0.0093
2037.00,0.0083
2024.00,0.0077
2011.00,0.0073
1998.00,0.0077
1985.00,0.0087
1972.00,0.0069
1959.00,0.0064
1946.00,0.0071
1933.00,0.0075
1920.00,0.0079
1907.00,0.0091
1894.00,0.0087
1881.00,0.0081
1868.00,0.0082
1855.00,0.0083
1842.00,0.0084
1829.00,0.0082
1816.00,0.0079
1803.00,0.0084
1790.00,0.0084
1777.00,0.0090
1764.00,0.0091
1751.00,0.0090
1738.00,0.0093
1725.00,0.0119
1712.00,0.0158
1699.00,0.0277
1686.00,0.0611
1673.00,0.1005
1660.00,0.1274
1647.00,0.1269
1634.00,0.0931
1621.00,0.1017
1608.00,0.0693
1595.00,0.0395
1582.00,0.0577
1569.00,0.0370
1556.00,0.0217
1543.00,0.0193
1530.00,0.0179
1517.00,0.0208
1504.00,0.0293
1491.00,0.0454
1478.00,0.0265
1465.00,0.0671
1452.00,0.0576
1439.00,0.0872
1426.00,0.1095
1413.00,0.0740
1400.00,0.0719
1387.00,0.0535
1374.00,0.0530
1361.00,0.0614
1348.00,0.0462
1335.00,0.0383
1322.00,0.0485
1309.00,0.0474
1296.00,0.0822
1283.00,0.1192
1270.00,0.0975
1257.00,0.0607
1244.00,0.0603
1231.00,0.0763
1218.00,0.0643
1205.00,0.0515
1192.00,0.0679
1179.00,0.0412
1166.00,0.0422
1153.00,0.0640
1140.00,0.0336
1127.00,0.0698
1114.00,0.0396
1101.00,0.0496
1088.00,0.0308
1075.00,0.0312
1062.00,0.0437
1049.00,0.0872
1036.00,0.0498
1023.00,0.0698
1010.00,0.0382
997.00,0.0433
984.00,0.0290
971.00,0.0265
958.00,0.0252
945.00,0.0236
932.00,0.0322
919.00,0.0300
906.00,0.0246
893.00,0.0308
880.00,0.0265
867.00,0.0538
854.00,0.0470
841.00,0.0478
828.00,0.0452
815.00,0.0691
802.00,0.0272
789.00,0.0259
776.00,0.0315
763.00,0.0326
750.00,0.0382
737.00,0.0564
724.00,0.0493
711.00,0.0476
698.00,0.0513
685.00,0.0561
672.00,0.0674
659.00,0.0759
646.00,0.0768
633.00,0.0696
620.00,0.0734
607.00,0.0735
594.00,0.0852
581.00,0.0912
568.00,0.0906
555.00,0.0899
542.00,0.0903
529.00,0.0903
516.00,0.0768
503.00,0.0779
490.00,0.0784
477.00,0.0744
464.00,0.0735
451.00,0.0703
438.00,0.0676
425.00,0.0618
412.00,0.0634
400.00,0.0593