File: FTIR/Olivia/2025_07_23_Polystyrene_Std_scan1.csv
Created as New Dataset,Sample 878 By YargerLab Date Monday, July 21 2025
cm-1,A
4000.00,0.0010
3987.00,0.0009
3974.00,0.0008
3961.00,0.0008
3948.00,0.0008
3935.00,0.0008
3922.00,0.0009
3909.00,0.0009
3896.00,0.0008
3883.00,0.0008
3870.00,0.0008
3857.00,0.0009
3844.00,0.0009
3831.00,0.0009
3818.00,0.0009
3805.00,0.0010
3792.00,0.0008
3779.00,0.0009
3766.00,0.0009
3753.00,0.0010
3740.00,0.0008
3727.00,0.0008
3714.00,0.0009
3701.00,0.0008
3688.00,0.0008
3675.00,0.0009
3662.00,0.0009
3649.00,0.0011
3636.00,0.0009
3623.00,0.0009
3610.00,0.0009
3597.00,0.0010
3584.00,0.0010
3571.00,0.0011
3558.00,0.0012
3545.00,0.0013
3532.00,0.0014
3519.00,0.0015
3506.00,0.0015
3493.00,0.0016
3480.00,0.0016
3467.00,0.0018
3454.00,0.0018
3441.00,0.0018
3428.00,0.0018
3415.00,0.0018
3402.00,0.0018
3389.00,0.0018
3376.00,0.0018
3363.00,0.0018
3350.00,0.0017
3337.00,0.0017
3324.00,0.0017
3311.00,0.0017
3298.00,0.0017
3285.00,0.0016
3272.00,0.0016
3259.00,0.0016
3246.00,0.0016
3233.00,0.0015
3220.00,0.0015
3207.00,0.0016
3194.00,0.0015
3181.00,0.0014
3168.00,0.0015
3155.00,0.0014
3142.00,0.0012
3129.00,0.0013
3116.00,0.0017
3103.00,0.0034
3090.00,0.0051
3077.00,0.0066
3064.00,0.0102
3051.00,0.0071
3038.00,0.0085
3025.00,0.0214
3012.00,0.0062
2999.00,0.0059
2986.00,0.0036
2973.00,0.0041
2960.00,0.0059
2947.00,0.0105
2934.00,0.0204
2921.00,0.0272
2908.00,0.0208
2895.00,0.0128
2882.00,0.0092
2869.00,0.0076
2856.00,0.0111
2843.00,0.0097
2830.00,0.0037
2817.00,0.0028
2804.00,0.0024
2791.00,0.0021
2778.00,0.0020
2765.00,0.0018
2752.00,0.0017
2739.00,0.0017
2726.00,0.0017
2713.00,0.0017
2700.00,0.0016
2687.00,0.0016
2674.00,0.0017
2661.00,0.0020
2648.00,0.0022
2635.00,0.0022
2622.00,0.0020
2609.00,0.0019
2596.00,0.0017
2583.00,0.0016
2570.00,0.0015
2557.00,0.0014
2544.00,0.0012
2531.00,0.0012
2518.00,0.0011
2505.00,0.0011
2492.00,0.0011
2479.00,0.0010
2466.00,0.0009
2453.00,0.0010
2440.00,0.0010
2427.00,0.0007
2414.00,0.0006
2401.00,0.0005
2388.00,0.0005
2375.00,0.0006
2362.00,0.0007
2349.00,0.0011
2336.00,0.0015
2323.00,0.0024
2310.00,0.0016
2297.00,0.0015
2284.00,0.0019
2271.00,0.0013
2258.00,0.0013
2245.00,0.0011
2232.00,0.0011
2219.00,0.0009
2206.00,0.0008
2193.00,0.0009
2180.00,0.0009
2167.00,0.0018
2154.00,-0.0019
2141.00,-0.0011
2128.00,-0.0011
2115.00,0.0005
2102.00,0.0005
2089.00,0.0004
2076.00,0.0005
2063.00,0.0001
2050.00,0.0011
2037.00,0.0003
2024.00,-0.0005
2011.00,0.0003
1998.00,-0.0001
1985.00,0.0011
1972.00,-0.0000
1959.00,0.0005
1946.00,0.0025
1933.00,0.0012
1920.00,0.0004
1907.00,0.0003
1894.00,0.0010
1881.00,0.0020
1868.00,0.0024
1855.00,0.0011
1842.00,0.0004
1829.00,0.0010
1816.00,0.0017
1803.00,0.0031
1790.00,0.0020
1777.00,0.0018
1764.00,0.0022
1751.00,0.0034
1738.00,0.0041
1725.00,0.0033
1712.00,0.0028
1699.00,0.0030
1686.00,0.0038
1673.00,0.0047
1660.00,0.0045
1647.00,0.0035
1634.00,0.0029
1621.00,0.0030
1608.00,0.0092
1595.00,0.0105
1582.00,0.0085
1569.00,0.0027
1556.00,0.0025
1543.00,0.0034
1530.00,0.0023
1517.00,0.0020
1504.00,0.0046
1491.00,0.0422
1478.00,0.0061
1465.00,0.0067
1452.00,0.0500
1439.00,0.0194
1426.00,0.0070
1413.00,0.0050
1400.00,0.0048
1387.00,0.0076
1374.00,0.0117
1361.00,0.0109
1348.00,0.0097
1335.00,0.0088
1322.00,0.0093
1309.00,0.0093
1296.00,0.0081
1283.00,0.0073
1270.00,0.0058
1257.00,0.0054
1244.00,0.0054
1231.00,0.0053
1218.00,0.0054
1205.00,0.0066
1192.00,0.0079
1179.00,0.0100
1166.00,0.0064
1153.00,0.0102
1140.00,0.0048
1127.00,0.0045
1114.00,0.0060
1101.00,0.0061
1088.00,0.0076
1075.00,0.0117
1062.00,0.0114
1049.00,0.0077
1036.00,0.0112
1023.00,0.0174
1010.00,0.0100
997.00,0.0078
984.00,0.0088
971.00,0.0087
958.00,0.0082
945.00,0.0080
932.00,0.0059
919.00,0.0070
906.00,0.0160
893.00,0.0064
880.00,0.0046
867.00,0.0041
854.00,0.0046
841.00,0.0087
828.00,0.0041
815.00,0.0041
802.00,0.0046
789.00,0.0085
776.00,0.0211
763.00,0.0531
750.00,0.0674
737.00,0.0305
724.00,0.0085
711.00,0.0197
698.00,0.1550
685.00,0.0619
672.00,0.0302
659.00,0.0189
646.00,0.0133
633.00,0.0142
620.00,0.0166
607.00,0.0133
594.00,0.0145
581.00,0.0178
568.00,0.0280
555.00,0.0396
542.00,0.0598
529.00,0.0433
516.00,0.0229
503.00,0.0157
490.00,0.0126
477.00,0.0117
464.00,0.0096
451.00,0.0095
438.00,0.0088
425.00,0.0088
412.00,0.0091
400.00,0.0093