File: FTIR/Olivia/2025_08_01_1CBN_3PVP29_mortar_dry_scan3.csv
Created as New Dataset,Sample 1022 By YargerLab Date Friday, August 01 2025
cm-1,A
4000.00,0.0055
3987.00,0.0054
3974.00,0.0055
3961.00,0.0055
3948.00,0.0054
3935.00,0.0054
3922.00,0.0054
3909.00,0.0054
3896.00,0.0054
3883.00,0.0053
3870.00,0.0053
3857.00,0.0055
3844.00,0.0053
3831.00,0.0053
3818.00,0.0053
3805.00,0.0054
3792.00,0.0053
3779.00,0.0053
3766.00,0.0053
3753.00,0.0054
3740.00,0.0053
3727.00,0.0051
3714.00,0.0051
3701.00,0.0050
3688.00,0.0050
3675.00,0.0050
3662.00,0.0049
3649.00,0.0050
3636.00,0.0050
3623.00,0.0051
3610.00,0.0052
3597.00,0.0053
3584.00,0.0053
3571.00,0.0056
3558.00,0.0058
3545.00,0.0062
3532.00,0.0066
3519.00,0.0071
3506.00,0.0077
3493.00,0.0083
3480.00,0.0094
3467.00,0.0108
3454.00,0.0124
3441.00,0.0143
3428.00,0.0170
3415.00,0.0202
3402.00,0.0220
3389.00,0.0214
3376.00,0.0194
3363.00,0.0178
3350.00,0.0167
3337.00,0.0162
3324.00,0.0163
3311.00,0.0169
3298.00,0.0178
3285.00,0.0189
3272.00,0.0201
3259.00,0.0212
3246.00,0.0221
3233.00,0.0224
3220.00,0.0219
3207.00,0.0206
3194.00,0.0189
3181.00,0.0171
3168.00,0.0152
3155.00,0.0134
3142.00,0.0119
3129.00,0.0108
3116.00,0.0100
3103.00,0.0090
3090.00,0.0088
3077.00,0.0088
3064.00,0.0085
3051.00,0.0087
3038.00,0.0089
3025.00,0.0087
3012.00,0.0079
2999.00,0.0096
2986.00,0.0135
2973.00,0.0197
2960.00,0.0267
2947.00,0.0197
2934.00,0.0321
2921.00,0.0384
2908.00,0.0245
2895.00,0.0179
2882.00,0.0153
2869.00,0.0200
2856.00,0.0302
2843.00,0.0177
2830.00,0.0110
2817.00,0.0091
2804.00,0.0083
2791.00,0.0077
2778.00,0.0073
2765.00,0.0071
2752.00,0.0071
2739.00,0.0073
2726.00,0.0077
2713.00,0.0073
2700.00,0.0072
2687.00,0.0070
2674.00,0.0069
2661.00,0.0073
2648.00,0.0074
2635.00,0.0072
2622.00,0.0068
2609.00,0.0067
2596.00,0.0069
2583.00,0.0069
2570.00,0.0068
2557.00,0.0066
2544.00,0.0064
2531.00,0.0065
2518.00,0.0062
2505.00,0.0060
2492.00,0.0058
2479.00,0.0058
2466.00,0.0058
2453.00,0.0058
2440.00,0.0057
2427.00,0.0055
2414.00,0.0054
2401.00,0.0054
2388.00,0.0053
2375.00,0.0051
2362.00,0.0050
2349.00,0.0052
2336.00,0.0053
2323.00,0.0061
2310.00,0.0054
2297.00,0.0057
2284.00,0.0062
2271.00,0.0057
2258.00,0.0051
2245.00,0.0052
2232.00,0.0054
2219.00,0.0053
2206.00,0.0054
2193.00,0.0053
2180.00,0.0050
2167.00,0.0059
2154.00,0.0033
2141.00,0.0035
2128.00,0.0039
2115.00,0.0046
2102.00,0.0045
2089.00,0.0043
2076.00,0.0048
2063.00,0.0045
2050.00,0.0051
2037.00,0.0046
2024.00,0.0040
2011.00,0.0041
1998.00,0.0036
1985.00,0.0046
1972.00,0.0033
1959.00,0.0032
1946.00,0.0037
1933.00,0.0039
1920.00,0.0043
1907.00,0.0055
1894.00,0.0047
1881.00,0.0043
1868.00,0.0043
1855.00,0.0045
1842.00,0.0048
1829.00,0.0043
1816.00,0.0043
1803.00,0.0044
1790.00,0.0047
1777.00,0.0048
1764.00,0.0048
1751.00,0.0045
1738.00,0.0044
1725.00,0.0053
1712.00,0.0062
1699.00,0.0057
1686.00,0.0040
1673.00,0.0061
1660.00,0.0119
1647.00,0.0182
1634.00,0.0218
1621.00,0.0545
1608.00,0.0393
1595.00,0.0197
1582.00,0.0420
1569.00,0.0246
1556.00,0.0117
1543.00,0.0094
1530.00,0.0088
1517.00,0.0110
1504.00,0.0148
1491.00,0.0225
1478.00,0.0120
1465.00,0.0289
1452.00,0.0255
1439.00,0.0360
1426.00,0.0427
1413.00,0.0307
1400.00,0.0502
1387.00,0.0337
1374.00,0.0258
1361.00,0.0384
1348.00,0.0301
1335.00,0.0217
1322.00,0.0229
1309.00,0.0211
1296.00,0.0354
1283.00,0.0397
1270.00,0.0232
1257.00,0.0168
1244.00,0.0264
1231.00,0.0386
1218.00,0.0272
1205.00,0.0217
1192.00,0.0418
1179.00,0.0171
1166.00,0.0155
1153.00,0.0428
1140.00,0.0162
1127.00,0.0531
1114.00,0.0235
1101.00,0.0319
1088.00,0.0146
1075.00,0.0141
1062.00,0.0259
1049.00,0.0703
1036.00,0.0332
1023.00,0.0492
1010.00,0.0202
997.00,0.0266
984.00,0.0156
971.00,0.0143
958.00,0.0128
945.00,0.0114
932.00,0.0165
919.00,0.0175
906.00,0.0110
893.00,0.0161
880.00,0.0138
867.00,0.0414
854.00,0.0281
841.00,0.0249
828.00,0.0273
815.00,0.0515
802.00,0.0134
789.00,0.0119
776.00,0.0157
763.00,0.0144
750.00,0.0152
737.00,0.0269
724.00,0.0239
711.00,0.0237
698.00,0.0252
685.00,0.0268
672.00,0.0320
659.00,0.0314
646.00,0.0259
633.00,0.0249
620.00,0.0303
607.00,0.0293
594.00,0.0376
581.00,0.0356
568.00,0.0316
555.00,0.0360
542.00,0.0390
529.00,0.0389
516.00,0.0269
503.00,0.0278
490.00,0.0274
477.00,0.0232
464.00,0.0215
451.00,0.0213
438.00,0.0210
425.00,0.0182
412.00,0.0211
400.00,0.0166