File: FTIR/Olivia/2025_08_06_1CBN_3PVP40_MP_Powder_Scan3.csv
Created as New Dataset,Sample 1087 By YargerLab Date Wednesday, August 06 2025
cm-1,A
4000.00,0.0091
3987.00,0.0091
3974.00,0.0092
3961.00,0.0092
3948.00,0.0090
3935.00,0.0091
3922.00,0.0091
3909.00,0.0090
3896.00,0.0089
3883.00,0.0088
3870.00,0.0089
3857.00,0.0089
3844.00,0.0089
3831.00,0.0089
3818.00,0.0088
3805.00,0.0088
3792.00,0.0088
3779.00,0.0089
3766.00,0.0088
3753.00,0.0088
3740.00,0.0086
3727.00,0.0085
3714.00,0.0086
3701.00,0.0086
3688.00,0.0087
3675.00,0.0087
3662.00,0.0089
3649.00,0.0091
3636.00,0.0095
3623.00,0.0100
3610.00,0.0106
3597.00,0.0114
3584.00,0.0122
3571.00,0.0133
3558.00,0.0144
3545.00,0.0156
3532.00,0.0168
3519.00,0.0177
3506.00,0.0189
3493.00,0.0202
3480.00,0.0219
3467.00,0.0240
3454.00,0.0264
3441.00,0.0292
3428.00,0.0329
3415.00,0.0372
3402.00,0.0398
3389.00,0.0385
3376.00,0.0356
3363.00,0.0328
3350.00,0.0309
3337.00,0.0300
3324.00,0.0299
3311.00,0.0305
3298.00,0.0317
3285.00,0.0332
3272.00,0.0345
3259.00,0.0360
3246.00,0.0371
3233.00,0.0373
3220.00,0.0366
3207.00,0.0348
3194.00,0.0320
3181.00,0.0291
3168.00,0.0262
3155.00,0.0234
3142.00,0.0209
3129.00,0.0192
3116.00,0.0179
3103.00,0.0163
3090.00,0.0160
3077.00,0.0158
3064.00,0.0154
3051.00,0.0155
3038.00,0.0159
3025.00,0.0157
3012.00,0.0150
2999.00,0.0189
2986.00,0.0264
2973.00,0.0383
2960.00,0.0501
2947.00,0.0400
2934.00,0.0603
2921.00,0.0693
2908.00,0.0454
2895.00,0.0352
2882.00,0.0314
2869.00,0.0377
2856.00,0.0536
2843.00,0.0313
2830.00,0.0204
2817.00,0.0169
2804.00,0.0154
2791.00,0.0143
2778.00,0.0135
2765.00,0.0132
2752.00,0.0131
2739.00,0.0134
2726.00,0.0139
2713.00,0.0133
2700.00,0.0131
2687.00,0.0127
2674.00,0.0126
2661.00,0.0132
2648.00,0.0133
2635.00,0.0128
2622.00,0.0123
2609.00,0.0122
2596.00,0.0125
2583.00,0.0125
2570.00,0.0122
2557.00,0.0119
2544.00,0.0116
2531.00,0.0116
2518.00,0.0112
2505.00,0.0110
2492.00,0.0107
2479.00,0.0106
2466.00,0.0105
2453.00,0.0107
2440.00,0.0104
2427.00,0.0102
2414.00,0.0102
2401.00,0.0099
2388.00,0.0099
2375.00,0.0096
2362.00,0.0096
2349.00,0.0097
2336.00,0.0101
2323.00,0.0111
2310.00,0.0103
2297.00,0.0105
2284.00,0.0109
2271.00,0.0102
2258.00,0.0098
2245.00,0.0097
2232.00,0.0098
2219.00,0.0095
2206.00,0.0097
2193.00,0.0098
2180.00,0.0094
2167.00,0.0104
2154.00,0.0072
2141.00,0.0077
2128.00,0.0082
2115.00,0.0093
2102.00,0.0089
2089.00,0.0088
2076.00,0.0094
2063.00,0.0085
2050.00,0.0093
2037.00,0.0090
2024.00,0.0081
2011.00,0.0087
1998.00,0.0081
1985.00,0.0089
1972.00,0.0076
1959.00,0.0073
1946.00,0.0079
1933.00,0.0079
1920.00,0.0084
1907.00,0.0100
1894.00,0.0093
1881.00,0.0085
1868.00,0.0083
1855.00,0.0087
1842.00,0.0092
1829.00,0.0085
1816.00,0.0084
1803.00,0.0088
1790.00,0.0092
1777.00,0.0095
1764.00,0.0097
1751.00,0.0098
1738.00,0.0104
1725.00,0.0125
1712.00,0.0154
1699.00,0.0235
1686.00,0.0440
1673.00,0.0672
1660.00,0.0829
1647.00,0.0854
1634.00,0.0710
1621.00,0.1084
1608.00,0.0752
1595.00,0.0406
1582.00,0.0708
1569.00,0.0432
1556.00,0.0235
1543.00,0.0194
1530.00,0.0179
1517.00,0.0213
1504.00,0.0298
1491.00,0.0447
1478.00,0.0254
1465.00,0.0634
1452.00,0.0549
1439.00,0.0813
1426.00,0.0997
1413.00,0.0709
1400.00,0.0860
1387.00,0.0600
1374.00,0.0517
1361.00,0.0692
1348.00,0.0526
1335.00,0.0403
1322.00,0.0467
1309.00,0.0453
1296.00,0.0772
1283.00,0.1037
1270.00,0.0772
1257.00,0.0514
1244.00,0.0595
1231.00,0.0771
1218.00,0.0607
1205.00,0.0485
1192.00,0.0753
1179.00,0.0387
1166.00,0.0381
1153.00,0.0728
1140.00,0.0331
1127.00,0.0847
1114.00,0.0424
1101.00,0.0565
1088.00,0.0306
1075.00,0.0312
1062.00,0.0478
1049.00,0.1124
1036.00,0.0574
1023.00,0.0835
1010.00,0.0399
997.00,0.0474
984.00,0.0300
971.00,0.0274
958.00,0.0253
945.00,0.0232
932.00,0.0320
919.00,0.0310
906.00,0.0234
893.00,0.0313
880.00,0.0269
867.00,0.0630
854.00,0.0497
841.00,0.0480
828.00,0.0479
815.00,0.0814
802.00,0.0267
789.00,0.0250
776.00,0.0311
763.00,0.0309
750.00,0.0350
737.00,0.0554
724.00,0.0481
711.00,0.0467
698.00,0.0511
685.00,0.0542
672.00,0.0655
659.00,0.0697
646.00,0.0673
633.00,0.0621
620.00,0.0685
607.00,0.0679
594.00,0.0798
581.00,0.0824
568.00,0.0809
555.00,0.0825
542.00,0.0846
529.00,0.0850
516.00,0.0690
503.00,0.0703
490.00,0.0710
477.00,0.0677
464.00,0.0657
451.00,0.0638
438.00,0.0613
425.00,0.0560
412.00,0.0590
400.00,0.0537