File: FTIR/Olivia/2025_07_30_Polystyrene_Std_scan1.csv
Created as New Dataset,Sample 957 By YargerLab Date Tuesday, July 29 2025
cm-1,A
4000.00,0.0014
3987.00,0.0013
3974.00,0.0013
3961.00,0.0012
3948.00,0.0013
3935.00,0.0012
3922.00,0.0012
3909.00,0.0013
3896.00,0.0011
3883.00,0.0011
3870.00,0.0011
3857.00,0.0011
3844.00,0.0011
3831.00,0.0011
3818.00,0.0010
3805.00,0.0012
3792.00,0.0013
3779.00,0.0012
3766.00,0.0012
3753.00,0.0012
3740.00,0.0011
3727.00,0.0011
3714.00,0.0011
3701.00,0.0012
3688.00,0.0011
3675.00,0.0011
3662.00,0.0014
3649.00,0.0013
3636.00,0.0014
3623.00,0.0015
3610.00,0.0017
3597.00,0.0020
3584.00,0.0022
3571.00,0.0022
3558.00,0.0022
3545.00,0.0024
3532.00,0.0026
3519.00,0.0028
3506.00,0.0030
3493.00,0.0031
3480.00,0.0034
3467.00,0.0035
3454.00,0.0036
3441.00,0.0038
3428.00,0.0038
3415.00,0.0038
3402.00,0.0039
3389.00,0.0039
3376.00,0.0039
3363.00,0.0038
3350.00,0.0038
3337.00,0.0038
3324.00,0.0037
3311.00,0.0037
3298.00,0.0036
3285.00,0.0036
3272.00,0.0035
3259.00,0.0034
3246.00,0.0033
3233.00,0.0031
3220.00,0.0031
3207.00,0.0032
3194.00,0.0030
3181.00,0.0029
3168.00,0.0029
3155.00,0.0027
3142.00,0.0026
3129.00,0.0026
3116.00,0.0031
3103.00,0.0054
3090.00,0.0075
3077.00,0.0100
3064.00,0.0149
3051.00,0.0106
3038.00,0.0120
3025.00,0.0319
3012.00,0.0092
2999.00,0.0091
2986.00,0.0064
2973.00,0.0091
2960.00,0.0107
2947.00,0.0156
2934.00,0.0308
2921.00,0.0412
2908.00,0.0310
2895.00,0.0190
2882.00,0.0138
2869.00,0.0114
2856.00,0.0165
2843.00,0.0144
2830.00,0.0055
2817.00,0.0042
2804.00,0.0037
2791.00,0.0033
2778.00,0.0031
2765.00,0.0028
2752.00,0.0026
2739.00,0.0027
2726.00,0.0027
2713.00,0.0026
2700.00,0.0026
2687.00,0.0025
2674.00,0.0025
2661.00,0.0029
2648.00,0.0031
2635.00,0.0031
2622.00,0.0028
2609.00,0.0027
2596.00,0.0026
2583.00,0.0025
2570.00,0.0022
2557.00,0.0021
2544.00,0.0021
2531.00,0.0019
2518.00,0.0019
2505.00,0.0018
2492.00,0.0019
2479.00,0.0017
2466.00,0.0015
2453.00,0.0016
2440.00,0.0014
2427.00,0.0013
2414.00,0.0012
2401.00,0.0012
2388.00,0.0011
2375.00,0.0012
2362.00,0.0014
2349.00,0.0017
2336.00,0.0021
2323.00,0.0031
2310.00,0.0024
2297.00,0.0023
2284.00,0.0024
2271.00,0.0019
2258.00,0.0017
2245.00,0.0016
2232.00,0.0013
2219.00,0.0012
2206.00,0.0013
2193.00,0.0011
2180.00,0.0010
2167.00,0.0019
2154.00,-0.0016
2141.00,-0.0011
2128.00,-0.0006
2115.00,0.0010
2102.00,0.0007
2089.00,0.0006
2076.00,0.0010
2063.00,0.0004
2050.00,0.0013
2037.00,0.0009
2024.00,-0.0001
2011.00,-0.0000
1998.00,0.0005
1985.00,0.0017
1972.00,0.0006
1959.00,0.0018
1946.00,0.0041
1933.00,0.0022
1920.00,0.0012
1907.00,0.0009
1894.00,0.0020
1881.00,0.0034
1868.00,0.0041
1855.00,0.0019
1842.00,0.0011
1829.00,0.0018
1816.00,0.0029
1803.00,0.0048
1790.00,0.0030
1777.00,0.0028
1764.00,0.0035
1751.00,0.0057
1738.00,0.0067
1725.00,0.0056
1712.00,0.0048
1699.00,0.0051
1686.00,0.0074
1673.00,0.0105
1660.00,0.0100
1647.00,0.0061
1634.00,0.0043
1621.00,0.0053
1608.00,0.0130
1595.00,0.0154
1582.00,0.0124
1569.00,0.0037
1556.00,0.0035
1543.00,0.0049
1530.00,0.0035
1517.00,0.0036
1504.00,0.0069
1491.00,0.0649
1478.00,0.0090
1465.00,0.0113
1452.00,0.0759
1439.00,0.0289
1426.00,0.0108
1413.00,0.0077
1400.00,0.0077
1387.00,0.0119
1374.00,0.0181
1361.00,0.0162
1348.00,0.0140
1335.00,0.0129
1322.00,0.0137
1309.00,0.0142
1296.00,0.0132
1283.00,0.0119
1270.00,0.0092
1257.00,0.0082
1244.00,0.0083
1231.00,0.0080
1218.00,0.0082
1205.00,0.0096
1192.00,0.0121
1179.00,0.0149
1166.00,0.0109
1153.00,0.0167
1140.00,0.0083
1127.00,0.0089
1114.00,0.0097
1101.00,0.0099
1088.00,0.0116
1075.00,0.0178
1062.00,0.0178
1049.00,0.0116
1036.00,0.0158
1023.00,0.0260
1010.00,0.0142
997.00,0.0113
984.00,0.0128
971.00,0.0127
958.00,0.0134
945.00,0.0136
932.00,0.0091
919.00,0.0103
906.00,0.0236
893.00,0.0089
880.00,0.0066
867.00,0.0059
854.00,0.0066
841.00,0.0124
828.00,0.0060
815.00,0.0069
802.00,0.0064
789.00,0.0119
776.00,0.0304
763.00,0.0792
750.00,0.1006
737.00,0.0429
724.00,0.0120
711.00,0.0277
698.00,0.2498
685.00,0.0879
672.00,0.0410
659.00,0.0253
646.00,0.0173
633.00,0.0186
620.00,0.0219
607.00,0.0173
594.00,0.0190
581.00,0.0242
568.00,0.0402
555.00,0.0566
542.00,0.0870
529.00,0.0608
516.00,0.0307
503.00,0.0209
490.00,0.0165
477.00,0.0144
464.00,0.0131
451.00,0.0127
438.00,0.0123
425.00,0.0106
412.00,0.0101
400.00,0.0136