File: FTIR/Olivia/2025_07_10_Polystyrene_Std_OAG_scan3.csv
Created as New Dataset,Sample 809 By YargerLab Date Thursday, July 10 2025
cm-1,A
4000.00,0.0035
3987.00,0.0035
3974.00,0.0035
3961.00,0.0035
3948.00,0.0035
3935.00,0.0036
3922.00,0.0035
3909.00,0.0035
3896.00,0.0035
3883.00,0.0035
3870.00,0.0035
3857.00,0.0035
3844.00,0.0036
3831.00,0.0035
3818.00,0.0036
3805.00,0.0036
3792.00,0.0035
3779.00,0.0035
3766.00,0.0036
3753.00,0.0036
3740.00,0.0036
3727.00,0.0035
3714.00,0.0035
3701.00,0.0036
3688.00,0.0033
3675.00,0.0035
3662.00,0.0035
3649.00,0.0038
3636.00,0.0036
3623.00,0.0036
3610.00,0.0037
3597.00,0.0037
3584.00,0.0039
3571.00,0.0040
3558.00,0.0041
3545.00,0.0043
3532.00,0.0043
3519.00,0.0043
3506.00,0.0043
3493.00,0.0042
3480.00,0.0043
3467.00,0.0044
3454.00,0.0044
3441.00,0.0045
3428.00,0.0044
3415.00,0.0045
3402.00,0.0045
3389.00,0.0045
3376.00,0.0044
3363.00,0.0043
3350.00,0.0043
3337.00,0.0042
3324.00,0.0042
3311.00,0.0041
3298.00,0.0041
3285.00,0.0041
3272.00,0.0041
3259.00,0.0040
3246.00,0.0040
3233.00,0.0039
3220.00,0.0038
3207.00,0.0039
3194.00,0.0038
3181.00,0.0037
3168.00,0.0037
3155.00,0.0037
3142.00,0.0036
3129.00,0.0036
3116.00,0.0039
3103.00,0.0055
3090.00,0.0066
3077.00,0.0086
3064.00,0.0113
3051.00,0.0091
3038.00,0.0097
3025.00,0.0232
3012.00,0.0086
2999.00,0.0082
2986.00,0.0053
2973.00,0.0061
2960.00,0.0069
2947.00,0.0106
2934.00,0.0190
2921.00,0.0267
2908.00,0.0216
2895.00,0.0138
2882.00,0.0103
2869.00,0.0086
2856.00,0.0114
2843.00,0.0116
2830.00,0.0056
2817.00,0.0047
2804.00,0.0045
2791.00,0.0042
2778.00,0.0041
2765.00,0.0039
2752.00,0.0038
2739.00,0.0038
2726.00,0.0038
2713.00,0.0038
2700.00,0.0038
2687.00,0.0038
2674.00,0.0038
2661.00,0.0041
2648.00,0.0042
2635.00,0.0042
2622.00,0.0040
2609.00,0.0040
2596.00,0.0038
2583.00,0.0037
2570.00,0.0034
2557.00,0.0034
2544.00,0.0034
2531.00,0.0034
2518.00,0.0033
2505.00,0.0032
2492.00,0.0032
2479.00,0.0031
2466.00,0.0031
2453.00,0.0032
2440.00,0.0031
2427.00,0.0030
2414.00,0.0028
2401.00,0.0027
2388.00,0.0026
2375.00,0.0027
2362.00,0.0028
2349.00,0.0029
2336.00,0.0034
2323.00,0.0042
2310.00,0.0036
2297.00,0.0037
2284.00,0.0039
2271.00,0.0035
2258.00,0.0034
2245.00,0.0031
2232.00,0.0031
2219.00,0.0029
2206.00,0.0028
2193.00,0.0033
2180.00,0.0024
2167.00,0.0040
2154.00,0.0001
2141.00,0.0009
2128.00,0.0012
2115.00,0.0026
2102.00,0.0025
2089.00,0.0023
2076.00,0.0026
2063.00,0.0023
2050.00,0.0034
2037.00,0.0029
2024.00,0.0015
2011.00,0.0017
1998.00,0.0020
1985.00,0.0032
1972.00,0.0018
1959.00,0.0026
1946.00,0.0042
1933.00,0.0030
1920.00,0.0024
1907.00,0.0023
1894.00,0.0029
1881.00,0.0039
1868.00,0.0043
1855.00,0.0030
1842.00,0.0025
1829.00,0.0029
1816.00,0.0035
1803.00,0.0049
1790.00,0.0036
1777.00,0.0033
1764.00,0.0035
1751.00,0.0046
1738.00,0.0053
1725.00,0.0045
1712.00,0.0040
1699.00,0.0040
1686.00,0.0043
1673.00,0.0049
1660.00,0.0048
1647.00,0.0045
1634.00,0.0045
1621.00,0.0049
1608.00,0.0103
1595.00,0.0130
1582.00,0.0108
1569.00,0.0047
1556.00,0.0046
1543.00,0.0056
1530.00,0.0047
1517.00,0.0046
1504.00,0.0068
1491.00,0.0510
1478.00,0.0087
1465.00,0.0086
1452.00,0.0559
1439.00,0.0229
1426.00,0.0097
1413.00,0.0084
1400.00,0.0076
1387.00,0.0096
1374.00,0.0138
1361.00,0.0130
1348.00,0.0117
1335.00,0.0106
1322.00,0.0109
1309.00,0.0110
1296.00,0.0091
1283.00,0.0085
1270.00,0.0071
1257.00,0.0067
1244.00,0.0069
1231.00,0.0068
1218.00,0.0070
1205.00,0.0085
1192.00,0.0105
1179.00,0.0136
1166.00,0.0102
1153.00,0.0158
1140.00,0.0178
1127.00,0.0127
1114.00,0.0109
1101.00,0.0106
1088.00,0.0120
1075.00,0.0170
1062.00,0.0168
1049.00,0.0127
1036.00,0.0162
1023.00,0.0251
1010.00,0.0148
997.00,0.0119
984.00,0.0128
971.00,0.0125
958.00,0.0125
945.00,0.0121
932.00,0.0095
919.00,0.0101
906.00,0.0215
893.00,0.0087
880.00,0.0069
867.00,0.0064
854.00,0.0065
841.00,0.0114
828.00,0.0061
815.00,0.0059
802.00,0.0068
789.00,0.0114
776.00,0.0264
763.00,0.0676
750.00,0.0886
737.00,0.0388
724.00,0.0116
711.00,0.0242
698.00,0.2369
685.00,0.0890
672.00,0.0406
659.00,0.0249
646.00,0.0164
633.00,0.0178
620.00,0.0212
607.00,0.0168
594.00,0.0180
581.00,0.0227
568.00,0.0370
555.00,0.0528
542.00,0.0839
529.00,0.0620
516.00,0.0321
503.00,0.0216
490.00,0.0177
477.00,0.0158
464.00,0.0151
451.00,0.0135
438.00,0.0128
425.00,0.0104
412.00,0.0097
400.00,0.0137