File: FTIR/Olivia/2025_08_06_1CBN_CBN_MP_Powder_Floraworks3.csv
Created as New Dataset,Sample 010 By YargerLab Date Wednesday, August 06 2025
cm-1,A
4000.00,0.0023
3987.00,0.0023
3974.00,0.0023
3961.00,0.0023
3948.00,0.0023
3935.00,0.0024
3922.00,0.0024
3909.00,0.0023
3896.00,0.0023
3883.00,0.0023
3870.00,0.0023
3857.00,0.0023
3844.00,0.0023
3831.00,0.0022
3818.00,0.0022
3805.00,0.0023
3792.00,0.0023
3779.00,0.0023
3766.00,0.0023
3753.00,0.0023
3740.00,0.0023
3727.00,0.0023
3714.00,0.0022
3701.00,0.0023
3688.00,0.0022
3675.00,0.0023
3662.00,0.0022
3649.00,0.0023
3636.00,0.0023
3623.00,0.0025
3610.00,0.0026
3597.00,0.0027
3584.00,0.0030
3571.00,0.0033
3558.00,0.0035
3545.00,0.0038
3532.00,0.0041
3519.00,0.0045
3506.00,0.0047
3493.00,0.0051
3480.00,0.0054
3467.00,0.0059
3454.00,0.0063
3441.00,0.0068
3428.00,0.0074
3415.00,0.0082
3402.00,0.0089
3389.00,0.0093
3376.00,0.0090
3363.00,0.0087
3350.00,0.0085
3337.00,0.0084
3324.00,0.0083
3311.00,0.0085
3298.00,0.0087
3285.00,0.0091
3272.00,0.0093
3259.00,0.0096
3246.00,0.0099
3233.00,0.0100
3220.00,0.0102
3207.00,0.0100
3194.00,0.0097
3181.00,0.0093
3168.00,0.0089
3155.00,0.0083
3142.00,0.0079
3129.00,0.0075
3116.00,0.0072
3103.00,0.0068
3090.00,0.0067
3077.00,0.0065
3064.00,0.0063
3051.00,0.0061
3038.00,0.0060
3025.00,0.0058
3012.00,0.0057
2999.00,0.0069
2986.00,0.0094
2973.00,0.0130
2960.00,0.0156
2947.00,0.0138
2934.00,0.0181
2921.00,0.0194
2908.00,0.0144
2895.00,0.0121
2882.00,0.0113
2869.00,0.0127
2856.00,0.0151
2843.00,0.0101
2830.00,0.0073
2817.00,0.0061
2804.00,0.0056
2791.00,0.0052
2778.00,0.0049
2765.00,0.0048
2752.00,0.0047
2739.00,0.0048
2726.00,0.0048
2713.00,0.0047
2700.00,0.0046
2687.00,0.0044
2674.00,0.0043
2661.00,0.0047
2648.00,0.0048
2635.00,0.0046
2622.00,0.0044
2609.00,0.0043
2596.00,0.0042
2583.00,0.0042
2570.00,0.0041
2557.00,0.0038
2544.00,0.0037
2531.00,0.0037
2518.00,0.0035
2505.00,0.0033
2492.00,0.0032
2479.00,0.0032
2466.00,0.0032
2453.00,0.0033
2440.00,0.0032
2427.00,0.0031
2414.00,0.0030
2401.00,0.0028
2388.00,0.0027
2375.00,0.0027
2362.00,0.0028
2349.00,0.0030
2336.00,0.0032
2323.00,0.0041
2310.00,0.0033
2297.00,0.0036
2284.00,0.0041
2271.00,0.0036
2258.00,0.0032
2245.00,0.0033
2232.00,0.0032
2219.00,0.0031
2206.00,0.0034
2193.00,0.0035
2180.00,0.0030
2167.00,0.0039
2154.00,0.0007
2141.00,0.0016
2128.00,0.0017
2115.00,0.0028
2102.00,0.0027
2089.00,0.0027
2076.00,0.0031
2063.00,0.0030
2050.00,0.0036
2037.00,0.0031
2024.00,0.0023
2011.00,0.0019
1998.00,0.0018
1985.00,0.0033
1972.00,0.0018
1959.00,0.0012
1946.00,0.0019
1933.00,0.0021
1920.00,0.0025
1907.00,0.0026
1894.00,0.0027
1881.00,0.0027
1868.00,0.0025
1855.00,0.0027
1842.00,0.0026
1829.00,0.0026
1816.00,0.0024
1803.00,0.0027
1790.00,0.0028
1777.00,0.0029
1764.00,0.0031
1751.00,0.0032
1738.00,0.0034
1725.00,0.0040
1712.00,0.0051
1699.00,0.0098
1686.00,0.0235
1673.00,0.0357
1660.00,0.0480
1647.00,0.0437
1634.00,0.0267
1621.00,0.0356
1608.00,0.0264
1595.00,0.0144
1582.00,0.0234
1569.00,0.0141
1556.00,0.0088
1543.00,0.0073
1530.00,0.0071
1517.00,0.0089
1504.00,0.0113
1491.00,0.0166
1478.00,0.0097
1465.00,0.0247
1452.00,0.0221
1439.00,0.0320
1426.00,0.0394
1413.00,0.0271
1400.00,0.0307
1387.00,0.0206
1374.00,0.0213
1361.00,0.0249
1348.00,0.0177
1335.00,0.0156
1322.00,0.0183
1309.00,0.0182
1296.00,0.0317
1283.00,0.0439
1270.00,0.0328
1257.00,0.0189
1244.00,0.0212
1231.00,0.0268
1218.00,0.0236
1205.00,0.0176
1192.00,0.0259
1179.00,0.0147
1166.00,0.0158
1153.00,0.0258
1140.00,0.0135
1127.00,0.0289
1114.00,0.0160
1101.00,0.0205
1088.00,0.0120
1075.00,0.0120
1062.00,0.0226
1049.00,0.0337
1036.00,0.0197
1023.00,0.0255
1010.00,0.0152
997.00,0.0171
984.00,0.0121
971.00,0.0110
958.00,0.0140
945.00,0.0104
932.00,0.0133
919.00,0.0127
906.00,0.0105
893.00,0.0126
880.00,0.0118
867.00,0.0233
854.00,0.0201
841.00,0.0209
828.00,0.0212
815.00,0.0339
802.00,0.0142
789.00,0.0130
776.00,0.0145
763.00,0.0144
750.00,0.0165
737.00,0.0243
724.00,0.0208
711.00,0.0199
698.00,0.0210
685.00,0.0231
672.00,0.0263
659.00,0.0300
646.00,0.0296
633.00,0.0257
620.00,0.0275
607.00,0.0272
594.00,0.0329
581.00,0.0357
568.00,0.0338
555.00,0.0337
542.00,0.0341
529.00,0.0354
516.00,0.0282
503.00,0.0282
490.00,0.0286
477.00,0.0264
464.00,0.0256
451.00,0.0243
438.00,0.0244
425.00,0.0229
412.00,0.0254
400.00,0.0227