File: FTIR/Olivia/2025_06_12_Polystyrene_Std_scan1.csv
Created as New Dataset,Sample 671 By YargerLab Date Wednesday, June 11 2025
cm-1,A
4000.00,0.0029
3987.00,0.0027
3974.00,0.0028
3961.00,0.0028
3948.00,0.0027
3935.00,0.0027
3922.00,0.0026
3909.00,0.0027
3896.00,0.0026
3883.00,0.0025
3870.00,0.0025
3857.00,0.0024
3844.00,0.0026
3831.00,0.0026
3818.00,0.0025
3805.00,0.0026
3792.00,0.0026
3779.00,0.0026
3766.00,0.0026
3753.00,0.0025
3740.00,0.0024
3727.00,0.0025
3714.00,0.0025
3701.00,0.0025
3688.00,0.0022
3675.00,0.0018
3662.00,0.0018
3649.00,0.0017
3636.00,0.0020
3623.00,0.0025
3610.00,0.0024
3597.00,0.0026
3584.00,0.0027
3571.00,0.0027
3558.00,0.0026
3545.00,0.0028
3532.00,0.0028
3519.00,0.0029
3506.00,0.0030
3493.00,0.0031
3480.00,0.0031
3467.00,0.0032
3454.00,0.0032
3441.00,0.0033
3428.00,0.0032
3415.00,0.0032
3402.00,0.0032
3389.00,0.0032
3376.00,0.0032
3363.00,0.0032
3350.00,0.0032
3337.00,0.0032
3324.00,0.0031
3311.00,0.0031
3298.00,0.0031
3285.00,0.0031
3272.00,0.0031
3259.00,0.0030
3246.00,0.0030
3233.00,0.0029
3220.00,0.0029
3207.00,0.0030
3194.00,0.0030
3181.00,0.0028
3168.00,0.0030
3155.00,0.0030
3142.00,0.0029
3129.00,0.0030
3116.00,0.0036
3103.00,0.0067
3090.00,0.0090
3077.00,0.0125
3064.00,0.0184
3051.00,0.0132
3038.00,0.0148
3025.00,0.0406
3012.00,0.0108
2999.00,0.0075
2986.00,0.0008
2973.00,0.0006
2960.00,0.0056
2947.00,0.0145
2934.00,0.0334
2921.00,0.0475
2908.00,0.0350
2895.00,0.0197
2882.00,0.0132
2869.00,0.0112
2856.00,0.0182
2843.00,0.0174
2830.00,0.0065
2817.00,0.0052
2804.00,0.0047
2791.00,0.0043
2778.00,0.0041
2765.00,0.0038
2752.00,0.0037
2739.00,0.0036
2726.00,0.0037
2713.00,0.0037
2700.00,0.0037
2687.00,0.0037
2674.00,0.0036
2661.00,0.0040
2648.00,0.0041
2635.00,0.0042
2622.00,0.0039
2609.00,0.0039
2596.00,0.0038
2583.00,0.0037
2570.00,0.0034
2557.00,0.0033
2544.00,0.0032
2531.00,0.0031
2518.00,0.0030
2505.00,0.0031
2492.00,0.0029
2479.00,0.0028
2466.00,0.0028
2453.00,0.0028
2440.00,0.0027
2427.00,0.0025
2414.00,0.0025
2401.00,0.0024
2388.00,0.0023
2375.00,0.0024
2362.00,0.0027
2349.00,0.0030
2336.00,0.0036
2323.00,0.0044
2310.00,0.0036
2297.00,0.0034
2284.00,0.0037
2271.00,0.0031
2258.00,0.0032
2245.00,0.0028
2232.00,0.0027
2219.00,0.0026
2206.00,0.0024
2193.00,0.0026
2180.00,0.0021
2167.00,0.0034
2154.00,-0.0003
2141.00,0.0003
2128.00,0.0006
2115.00,0.0020
2102.00,0.0020
2089.00,0.0018
2076.00,0.0021
2063.00,0.0017
2050.00,0.0025
2037.00,0.0016
2024.00,0.0012
2011.00,0.0011
1998.00,0.0016
1985.00,0.0028
1972.00,0.0016
1959.00,0.0032
1946.00,0.0060
1933.00,0.0040
1920.00,0.0022
1907.00,0.0020
1894.00,0.0033
1881.00,0.0051
1868.00,0.0058
1855.00,0.0031
1842.00,0.0022
1829.00,0.0029
1816.00,0.0044
1803.00,0.0068
1790.00,0.0043
1777.00,0.0036
1764.00,0.0041
1751.00,0.0068
1738.00,0.0073
1725.00,0.0058
1712.00,0.0050
1699.00,0.0046
1686.00,0.0048
1673.00,0.0054
1660.00,0.0050
1647.00,0.0042
1634.00,0.0040
1621.00,0.0049
1608.00,0.0154
1595.00,0.0196
1582.00,0.0156
1569.00,0.0049
1556.00,0.0048
1543.00,0.0067
1530.00,0.0050
1517.00,0.0048
1504.00,0.0088
1491.00,0.0860
1478.00,0.0111
1465.00,0.0109
1452.00,0.0986
1439.00,0.0348
1426.00,0.0110
1413.00,0.0079
1400.00,0.0064
1387.00,0.0110
1374.00,0.0190
1361.00,0.0183
1348.00,0.0166
1335.00,0.0150
1322.00,0.0162
1309.00,0.0166
1296.00,0.0134
1283.00,0.0120
1270.00,0.0090
1257.00,0.0078
1244.00,0.0083
1231.00,0.0084
1218.00,0.0092
1205.00,0.0117
1192.00,0.0143
1179.00,0.0175
1166.00,0.0096
1153.00,0.0169
1140.00,0.0064
1127.00,0.0066
1114.00,0.0099
1101.00,0.0102
1088.00,0.0121
1075.00,0.0205
1062.00,0.0203
1049.00,0.0138
1036.00,0.0203
1023.00,0.0350
1010.00,0.0185
997.00,0.0144
984.00,0.0164
971.00,0.0146
958.00,0.0135
945.00,0.0136
932.00,0.0102
919.00,0.0129
906.00,0.0317
893.00,0.0115
880.00,0.0083
867.00,0.0072
854.00,0.0081
841.00,0.0161
828.00,0.0071
815.00,0.0070
802.00,0.0081
789.00,0.0158
776.00,0.0404
763.00,0.1072
750.00,0.1382
737.00,0.0570
724.00,0.0157
711.00,0.0360
698.00,0.3935
685.00,0.1205
672.00,0.0541
659.00,0.0320
646.00,0.0206
633.00,0.0233
620.00,0.0279
607.00,0.0215
594.00,0.0236
581.00,0.0307
568.00,0.0525
555.00,0.0757
542.00,0.1191
529.00,0.0817
516.00,0.0406
503.00,0.0269
490.00,0.0198
477.00,0.0172
464.00,0.0152
451.00,0.0141
438.00,0.0132
425.00,0.0122
412.00,0.0139
400.00,0.0131