File: FTIR/Olivia/2025_08_06_1CBN_3PVP90_MP_Powder_Scan2.csv
Created as New Dataset,Sample 003 By YargerLab Date Wednesday, August 06 2025
cm-1,A
4000.00,0.0025
3987.00,0.0025
3974.00,0.0025
3961.00,0.0025
3948.00,0.0025
3935.00,0.0025
3922.00,0.0025
3909.00,0.0025
3896.00,0.0024
3883.00,0.0024
3870.00,0.0025
3857.00,0.0025
3844.00,0.0025
3831.00,0.0024
3818.00,0.0025
3805.00,0.0024
3792.00,0.0024
3779.00,0.0024
3766.00,0.0025
3753.00,0.0025
3740.00,0.0024
3727.00,0.0022
3714.00,0.0022
3701.00,0.0022
3688.00,0.0022
3675.00,0.0021
3662.00,0.0021
3649.00,0.0021
3636.00,0.0020
3623.00,0.0021
3610.00,0.0021
3597.00,0.0020
3584.00,0.0019
3571.00,0.0019
3558.00,0.0021
3545.00,0.0021
3532.00,0.0024
3519.00,0.0026
3506.00,0.0029
3493.00,0.0031
3480.00,0.0036
3467.00,0.0043
3454.00,0.0051
3441.00,0.0061
3428.00,0.0074
3415.00,0.0089
3402.00,0.0101
3389.00,0.0100
3376.00,0.0090
3363.00,0.0082
3350.00,0.0077
3337.00,0.0074
3324.00,0.0074
3311.00,0.0077
3298.00,0.0082
3285.00,0.0087
3272.00,0.0094
3259.00,0.0101
3246.00,0.0108
3233.00,0.0111
3220.00,0.0112
3207.00,0.0107
3194.00,0.0100
3181.00,0.0092
3168.00,0.0083
3155.00,0.0073
3142.00,0.0065
3129.00,0.0059
3116.00,0.0055
3103.00,0.0049
3090.00,0.0048
3077.00,0.0048
3064.00,0.0047
3051.00,0.0047
3038.00,0.0048
3025.00,0.0047
3012.00,0.0043
2999.00,0.0055
2986.00,0.0075
2973.00,0.0116
2960.00,0.0153
2947.00,0.0118
2934.00,0.0198
2921.00,0.0234
2908.00,0.0150
2895.00,0.0109
2882.00,0.0095
2869.00,0.0120
2856.00,0.0184
2843.00,0.0109
2830.00,0.0067
2817.00,0.0054
2804.00,0.0049
2791.00,0.0046
2778.00,0.0042
2765.00,0.0041
2752.00,0.0041
2739.00,0.0042
2726.00,0.0044
2713.00,0.0042
2700.00,0.0041
2687.00,0.0040
2674.00,0.0039
2661.00,0.0043
2648.00,0.0044
2635.00,0.0043
2622.00,0.0040
2609.00,0.0039
2596.00,0.0040
2583.00,0.0039
2570.00,0.0037
2557.00,0.0036
2544.00,0.0035
2531.00,0.0035
2518.00,0.0032
2505.00,0.0032
2492.00,0.0031
2479.00,0.0030
2466.00,0.0030
2453.00,0.0031
2440.00,0.0029
2427.00,0.0028
2414.00,0.0028
2401.00,0.0027
2388.00,0.0026
2375.00,0.0020
2362.00,0.0020
2349.00,0.0021
2336.00,0.0024
2323.00,0.0034
2310.00,0.0026
2297.00,0.0029
2284.00,0.0034
2271.00,0.0030
2258.00,0.0027
2245.00,0.0027
2232.00,0.0028
2219.00,0.0027
2206.00,0.0028
2193.00,0.0027
2180.00,0.0027
2167.00,0.0034
2154.00,0.0005
2141.00,0.0011
2128.00,0.0013
2115.00,0.0022
2102.00,0.0022
2089.00,0.0020
2076.00,0.0025
2063.00,0.0021
2050.00,0.0029
2037.00,0.0024
2024.00,0.0017
2011.00,0.0017
1998.00,0.0017
1985.00,0.0028
1972.00,0.0013
1959.00,0.0010
1946.00,0.0015
1933.00,0.0017
1920.00,0.0020
1907.00,0.0027
1894.00,0.0024
1881.00,0.0022
1868.00,0.0021
1855.00,0.0022
1842.00,0.0024
1829.00,0.0022
1816.00,0.0020
1803.00,0.0023
1790.00,0.0025
1777.00,0.0025
1764.00,0.0026
1751.00,0.0024
1738.00,0.0025
1725.00,0.0029
1712.00,0.0032
1699.00,0.0046
1686.00,0.0071
1673.00,0.0070
1660.00,0.0062
1647.00,0.0055
1634.00,0.0077
1621.00,0.0315
1608.00,0.0235
1595.00,0.0117
1582.00,0.0263
1569.00,0.0160
1556.00,0.0077
1543.00,0.0059
1530.00,0.0054
1517.00,0.0069
1504.00,0.0091
1491.00,0.0131
1478.00,0.0071
1465.00,0.0173
1452.00,0.0154
1439.00,0.0215
1426.00,0.0271
1413.00,0.0200
1400.00,0.0331
1387.00,0.0218
1374.00,0.0165
1361.00,0.0258
1348.00,0.0199
1335.00,0.0141
1322.00,0.0138
1309.00,0.0134
1296.00,0.0218
1283.00,0.0261
1270.00,0.0140
1257.00,0.0107
1244.00,0.0178
1231.00,0.0253
1218.00,0.0179
1205.00,0.0143
1192.00,0.0279
1179.00,0.0112
1166.00,0.0099
1153.00,0.0271
1140.00,0.0105
1127.00,0.0338
1114.00,0.0149
1101.00,0.0208
1088.00,0.0092
1075.00,0.0089
1062.00,0.0171
1049.00,0.0465
1036.00,0.0228
1023.00,0.0345
1010.00,0.0144
997.00,0.0176
984.00,0.0103
971.00,0.0094
958.00,0.0086
945.00,0.0073
932.00,0.0108
919.00,0.0110
906.00,0.0075
893.00,0.0108
880.00,0.0093
867.00,0.0265
854.00,0.0184
841.00,0.0168
828.00,0.0186
815.00,0.0366
802.00,0.0085
789.00,0.0072
776.00,0.0099
763.00,0.0086
750.00,0.0085
737.00,0.0171
724.00,0.0144
711.00,0.0143
698.00,0.0156
685.00,0.0157
672.00,0.0201
659.00,0.0192
646.00,0.0151
633.00,0.0142
620.00,0.0184
607.00,0.0178
594.00,0.0238
581.00,0.0218
568.00,0.0193
555.00,0.0221
542.00,0.0238
529.00,0.0243
516.00,0.0153
503.00,0.0160
490.00,0.0162
477.00,0.0130
464.00,0.0124
451.00,0.0132
438.00,0.0126
425.00,0.0119
412.00,0.0139
400.00,0.0114