File: FTIR/Olivia/2025_08_12_Polystyrene_film_scan3.csv
Created as New Dataset,Sample 040 By YargerLab Date Tuesday, August 12 2025
cm-1,A
4000.00,0.0003
3987.00,0.0003
3974.00,0.0003
3961.00,0.0003
3948.00,0.0003
3935.00,0.0003
3922.00,0.0003
3909.00,0.0003
3896.00,0.0002
3883.00,0.0001
3870.00,0.0001
3857.00,0.0001
3844.00,0.0003
3831.00,0.0002
3818.00,0.0000
3805.00,0.0002
3792.00,0.0003
3779.00,0.0003
3766.00,0.0003
3753.00,0.0002
3740.00,0.0000
3727.00,0.0001
3714.00,0.0002
3701.00,0.0001
3688.00,0.0000
3675.00,-0.0001
3662.00,0.0002
3649.00,-0.0000
3636.00,0.0002
3623.00,0.0000
3610.00,-0.0000
3597.00,0.0000
3584.00,-0.0000
3571.00,0.0002
3558.00,0.0002
3545.00,0.0001
3532.00,0.0002
3519.00,0.0002
3506.00,0.0002
3493.00,0.0002
3480.00,0.0003
3467.00,0.0004
3454.00,0.0002
3441.00,0.0003
3428.00,0.0003
3415.00,0.0003
3402.00,0.0003
3389.00,0.0003
3376.00,0.0003
3363.00,0.0003
3350.00,0.0003
3337.00,0.0004
3324.00,0.0003
3311.00,0.0004
3298.00,0.0004
3285.00,0.0004
3272.00,0.0003
3259.00,0.0003
3246.00,0.0003
3233.00,0.0003
3220.00,0.0003
3207.00,0.0003
3194.00,0.0003
3181.00,0.0003
3168.00,0.0003
3155.00,0.0003
3142.00,0.0003
3129.00,0.0003
3116.00,0.0004
3103.00,0.0010
3090.00,0.0014
3077.00,0.0023
3064.00,0.0032
3051.00,0.0025
3038.00,0.0026
3025.00,0.0078
3012.00,0.0020
2999.00,0.0019
2986.00,0.0008
2973.00,0.0009
2960.00,0.0015
2947.00,0.0031
2934.00,0.0065
2921.00,0.0094
2908.00,0.0072
2895.00,0.0040
2882.00,0.0027
2869.00,0.0021
2856.00,0.0033
2843.00,0.0034
2830.00,0.0009
2817.00,0.0007
2804.00,0.0006
2791.00,0.0005
2778.00,0.0005
2765.00,0.0004
2752.00,0.0004
2739.00,0.0004
2726.00,0.0004
2713.00,0.0004
2700.00,0.0004
2687.00,0.0004
2674.00,0.0004
2661.00,0.0007
2648.00,0.0008
2635.00,0.0008
2622.00,0.0007
2609.00,0.0007
2596.00,0.0006
2583.00,0.0005
2570.00,0.0004
2557.00,0.0003
2544.00,0.0003
2531.00,0.0002
2518.00,0.0002
2505.00,0.0002
2492.00,0.0002
2479.00,0.0001
2466.00,0.0002
2453.00,0.0003
2440.00,0.0001
2427.00,-0.0000
2414.00,0.0000
2401.00,-0.0002
2388.00,-0.0002
2375.00,-0.0006
2362.00,-0.0006
2349.00,-0.0004
2336.00,-0.0001
2323.00,0.0008
2310.00,0.0001
2297.00,0.0005
2284.00,0.0010
2271.00,0.0007
2258.00,0.0004
2245.00,0.0002
2232.00,0.0001
2219.00,0.0001
2206.00,0.0003
2193.00,0.0005
2180.00,-0.0002
2167.00,0.0011
2154.00,-0.0017
2141.00,-0.0015
2128.00,-0.0011
2115.00,-0.0001
2102.00,-0.0002
2089.00,0.0000
2076.00,0.0002
2063.00,-0.0002
2050.00,0.0008
2037.00,0.0002
2024.00,-0.0005
2011.00,-0.0004
1998.00,-0.0002
1985.00,0.0004
1972.00,-0.0007
1959.00,-0.0007
1946.00,0.0003
1933.00,-0.0001
1920.00,-0.0002
1907.00,-0.0004
1894.00,-0.0001
1881.00,0.0004
1868.00,0.0007
1855.00,0.0000
1842.00,-0.0002
1829.00,0.0000
1816.00,0.0003
1803.00,0.0010
1790.00,0.0004
1777.00,0.0003
1764.00,0.0004
1751.00,0.0011
1738.00,0.0013
1725.00,0.0009
1712.00,0.0007
1699.00,0.0007
1686.00,0.0007
1673.00,0.0010
1660.00,0.0010
1647.00,0.0006
1634.00,0.0005
1621.00,0.0009
1608.00,0.0032
1595.00,0.0046
1582.00,0.0036
1569.00,0.0008
1556.00,0.0007
1543.00,0.0013
1530.00,0.0009
1517.00,0.0009
1504.00,0.0018
1491.00,0.0228
1478.00,0.0026
1465.00,0.0027
1452.00,0.0240
1439.00,0.0089
1426.00,0.0025
1413.00,0.0017
1400.00,0.0017
1387.00,0.0030
1374.00,0.0050
1361.00,0.0047
1348.00,0.0041
1335.00,0.0037
1322.00,0.0040
1309.00,0.0042
1296.00,0.0034
1283.00,0.0031
1270.00,0.0023
1257.00,0.0020
1244.00,0.0022
1231.00,0.0022
1218.00,0.0023
1205.00,0.0030
1192.00,0.0040
1179.00,0.0051
1166.00,0.0029
1153.00,0.0054
1140.00,0.0020
1127.00,0.0019
1114.00,0.0028
1101.00,0.0029
1088.00,0.0036
1075.00,0.0065
1062.00,0.0065
1049.00,0.0043
1036.00,0.0058
1023.00,0.0104
1010.00,0.0054
997.00,0.0043
984.00,0.0051
971.00,0.0050
958.00,0.0047
945.00,0.0047
932.00,0.0033
919.00,0.0040
906.00,0.0105
893.00,0.0035
880.00,0.0023
867.00,0.0020
854.00,0.0024
841.00,0.0051
828.00,0.0020
815.00,0.0020
802.00,0.0024
789.00,0.0052
776.00,0.0133
763.00,0.0357
750.00,0.0472
737.00,0.0200
724.00,0.0052
711.00,0.0122
698.00,0.1253
685.00,0.0521
672.00,0.0219
659.00,0.0125
646.00,0.0071
633.00,0.0080
620.00,0.0100
607.00,0.0077
594.00,0.0085
581.00,0.0115
568.00,0.0202
555.00,0.0292
542.00,0.0478
529.00,0.0358
516.00,0.0168
503.00,0.0109
490.00,0.0089
477.00,0.0075
464.00,0.0062
451.00,0.0061
438.00,0.0060
425.00,0.0055
412.00,0.0035
400.00,0.0047