File: FTIR/Olivia/2025_07_16_Polystyrene_Std_scan3.csv
Created as New Dataset,Sample 833 By YargerLab Date Wednesday, July 16 2025
cm-1,A
4000.00,0.0014
3987.00,0.0013
3974.00,0.0013
3961.00,0.0013
3948.00,0.0013
3935.00,0.0014
3922.00,0.0014
3909.00,0.0013
3896.00,0.0015
3883.00,0.0016
3870.00,0.0016
3857.00,0.0017
3844.00,0.0015
3831.00,0.0016
3818.00,0.0018
3805.00,0.0017
3792.00,0.0014
3779.00,0.0015
3766.00,0.0015
3753.00,0.0018
3740.00,0.0018
3727.00,0.0016
3714.00,0.0015
3701.00,0.0014
3688.00,0.0016
3675.00,0.0018
3662.00,0.0013
3649.00,0.0018
3636.00,0.0013
3623.00,0.0016
3610.00,0.0017
3597.00,0.0015
3584.00,0.0016
3571.00,0.0015
3558.00,0.0016
3545.00,0.0017
3532.00,0.0017
3519.00,0.0018
3506.00,0.0019
3493.00,0.0019
3480.00,0.0019
3467.00,0.0020
3454.00,0.0021
3441.00,0.0021
3428.00,0.0020
3415.00,0.0021
3402.00,0.0021
3389.00,0.0021
3376.00,0.0021
3363.00,0.0021
3350.00,0.0021
3337.00,0.0021
3324.00,0.0021
3311.00,0.0021
3298.00,0.0021
3285.00,0.0020
3272.00,0.0020
3259.00,0.0019
3246.00,0.0019
3233.00,0.0019
3220.00,0.0018
3207.00,0.0019
3194.00,0.0018
3181.00,0.0017
3168.00,0.0017
3155.00,0.0017
3142.00,0.0017
3129.00,0.0017
3116.00,0.0019
3103.00,0.0033
3090.00,0.0042
3077.00,0.0060
3064.00,0.0083
3051.00,0.0063
3038.00,0.0067
3025.00,0.0181
3012.00,0.0055
2999.00,0.0052
2986.00,0.0030
2973.00,0.0032
2960.00,0.0045
2947.00,0.0079
2934.00,0.0156
2921.00,0.0219
2908.00,0.0170
2895.00,0.0103
2882.00,0.0073
2869.00,0.0060
2856.00,0.0086
2843.00,0.0084
2830.00,0.0033
2817.00,0.0026
2804.00,0.0024
2791.00,0.0022
2778.00,0.0021
2765.00,0.0020
2752.00,0.0019
2739.00,0.0019
2726.00,0.0019
2713.00,0.0019
2700.00,0.0019
2687.00,0.0019
2674.00,0.0019
2661.00,0.0022
2648.00,0.0024
2635.00,0.0024
2622.00,0.0022
2609.00,0.0022
2596.00,0.0020
2583.00,0.0020
2570.00,0.0018
2557.00,0.0017
2544.00,0.0017
2531.00,0.0016
2518.00,0.0016
2505.00,0.0015
2492.00,0.0015
2479.00,0.0015
2466.00,0.0014
2453.00,0.0015
2440.00,0.0014
2427.00,0.0012
2414.00,0.0012
2401.00,0.0011
2388.00,0.0010
2375.00,0.0009
2362.00,0.0010
2349.00,0.0012
2336.00,0.0015
2323.00,0.0025
2310.00,0.0019
2297.00,0.0019
2284.00,0.0023
2271.00,0.0017
2258.00,0.0018
2245.00,0.0016
2232.00,0.0014
2219.00,0.0014
2206.00,0.0014
2193.00,0.0014
2180.00,0.0009
2167.00,0.0022
2154.00,-0.0008
2141.00,-0.0006
2128.00,-0.0003
2115.00,0.0008
2102.00,0.0010
2089.00,0.0010
2076.00,0.0012
2063.00,0.0008
2050.00,0.0017
2037.00,0.0010
2024.00,0.0006
2011.00,0.0004
1998.00,0.0006
1985.00,0.0018
1972.00,0.0002
1959.00,0.0008
1946.00,0.0025
1933.00,0.0017
1920.00,0.0009
1907.00,0.0007
1894.00,0.0013
1881.00,0.0023
1868.00,0.0026
1855.00,0.0014
1842.00,0.0010
1829.00,0.0014
1816.00,0.0019
1803.00,0.0032
1790.00,0.0021
1777.00,0.0018
1764.00,0.0020
1751.00,0.0032
1738.00,0.0036
1725.00,0.0030
1712.00,0.0026
1699.00,0.0027
1686.00,0.0035
1673.00,0.0042
1660.00,0.0041
1647.00,0.0033
1634.00,0.0029
1621.00,0.0032
1608.00,0.0078
1595.00,0.0102
1582.00,0.0083
1569.00,0.0030
1556.00,0.0029
1543.00,0.0039
1530.00,0.0028
1517.00,0.0027
1504.00,0.0048
1491.00,0.0435
1478.00,0.0063
1465.00,0.0065
1452.00,0.0475
1439.00,0.0186
1426.00,0.0064
1413.00,0.0047
1400.00,0.0045
1387.00,0.0072
1374.00,0.0110
1361.00,0.0103
1348.00,0.0092
1335.00,0.0084
1322.00,0.0089
1309.00,0.0091
1296.00,0.0077
1283.00,0.0071
1270.00,0.0057
1257.00,0.0051
1244.00,0.0053
1231.00,0.0052
1218.00,0.0054
1205.00,0.0066
1192.00,0.0081
1179.00,0.0104
1166.00,0.0068
1153.00,0.0110
1140.00,0.0052
1127.00,0.0050
1114.00,0.0068
1101.00,0.0071
1088.00,0.0083
1075.00,0.0130
1062.00,0.0132
1049.00,0.0093
1036.00,0.0125
1023.00,0.0203
1010.00,0.0115
997.00,0.0093
984.00,0.0104
971.00,0.0101
958.00,0.0096
945.00,0.0091
932.00,0.0069
919.00,0.0080
906.00,0.0181
893.00,0.0072
880.00,0.0054
867.00,0.0047
854.00,0.0051
841.00,0.0098
828.00,0.0048
815.00,0.0047
802.00,0.0054
789.00,0.0096
776.00,0.0229
763.00,0.0596
750.00,0.0769
737.00,0.0337
724.00,0.0100
711.00,0.0212
698.00,0.2088
685.00,0.0763
672.00,0.0355
659.00,0.0217
646.00,0.0140
633.00,0.0153
620.00,0.0184
607.00,0.0145
594.00,0.0160
581.00,0.0199
568.00,0.0328
555.00,0.0466
542.00,0.0728
529.00,0.0532
516.00,0.0276
503.00,0.0190
490.00,0.0154
477.00,0.0136
464.00,0.0114
451.00,0.0102
438.00,0.0112
425.00,0.0089
412.00,0.0095
400.00,0.0102