File: FTIR/Olivia/2025_06_05_Putative_Cocrystal_Sorbic_CBD_Scan3.csv
Created as New Dataset,Sample 590 By YargerLab Date Thursday, June 05 2025
cm-1,A
4000.00,0.0028
3987.00,0.0028
3974.00,0.0028
3961.00,0.0027
3948.00,0.0027
3935.00,0.0026
3922.00,0.0026
3909.00,0.0027
3896.00,0.0025
3883.00,0.0025
3870.00,0.0024
3857.00,0.0025
3844.00,0.0025
3831.00,0.0024
3818.00,0.0023
3805.00,0.0024
3792.00,0.0024
3779.00,0.0024
3766.00,0.0023
3753.00,0.0022
3740.00,0.0021
3727.00,0.0022
3714.00,0.0022
3701.00,0.0021
3688.00,0.0019
3675.00,0.0018
3662.00,0.0019
3649.00,0.0017
3636.00,0.0019
3623.00,0.0020
3610.00,0.0021
3597.00,0.0022
3584.00,0.0023
3571.00,0.0025
3558.00,0.0028
3545.00,0.0030
3532.00,0.0036
3519.00,0.0045
3506.00,0.0057
3493.00,0.0080
3480.00,0.0118
3467.00,0.0194
3454.00,0.0478
3441.00,0.0373
3428.00,0.0185
3415.00,0.0127
3402.00,0.0111
3389.00,0.0106
3376.00,0.0106
3363.00,0.0107
3350.00,0.0112
3337.00,0.0117
3324.00,0.0124
3311.00,0.0134
3298.00,0.0145
3285.00,0.0161
3272.00,0.0174
3259.00,0.0191
3246.00,0.0201
3233.00,0.0216
3220.00,0.0229
3207.00,0.0244
3194.00,0.0256
3181.00,0.0265
3168.00,0.0270
3155.00,0.0272
3142.00,0.0286
3129.00,0.0298
3116.00,0.0304
3103.00,0.0317
3090.00,0.0320
3077.00,0.0333
3064.00,0.0334
3051.00,0.0292
3038.00,0.0279
3025.00,0.0267
3012.00,0.0253
2999.00,0.0254
2986.00,0.0287
2973.00,0.0333
2960.00,0.0434
2947.00,0.0456
2934.00,0.0598
2921.00,0.0750
2908.00,0.0501
2895.00,0.0380
2882.00,0.0356
2869.00,0.0410
2856.00,0.0453
2843.00,0.0323
2830.00,0.0287
2817.00,0.0206
2804.00,0.0187
2791.00,0.0180
2778.00,0.0183
2765.00,0.0192
2752.00,0.0198
2739.00,0.0201
2726.00,0.0206
2713.00,0.0207
2700.00,0.0210
2687.00,0.0211
2674.00,0.0209
2661.00,0.0213
2648.00,0.0207
2635.00,0.0203
2622.00,0.0199
2609.00,0.0194
2596.00,0.0187
2583.00,0.0180
2570.00,0.0178
2557.00,0.0182
2544.00,0.0177
2531.00,0.0167
2518.00,0.0162
2505.00,0.0153
2492.00,0.0150
2479.00,0.0147
2466.00,0.0146
2453.00,0.0150
2440.00,0.0150
2427.00,0.0147
2414.00,0.0141
2401.00,0.0128
2388.00,0.0117
2375.00,0.0106
2362.00,0.0098
2349.00,0.0091
2336.00,0.0085
2323.00,0.0086
2310.00,0.0074
2297.00,0.0070
2284.00,0.0071
2271.00,0.0063
2258.00,0.0059
2245.00,0.0053
2232.00,0.0053
2219.00,0.0046
2206.00,0.0047
2193.00,0.0044
2180.00,0.0040
2167.00,0.0050
2154.00,0.0011
2141.00,0.0019
2128.00,0.0020
2115.00,0.0029
2102.00,0.0026
2089.00,0.0026
2076.00,0.0026
2063.00,0.0021
2050.00,0.0032
2037.00,0.0025
2024.00,0.0019
2011.00,0.0019
1998.00,0.0019
1985.00,0.0033
1972.00,0.0017
1959.00,0.0014
1946.00,0.0017
1933.00,0.0018
1920.00,0.0021
1907.00,0.0021
1894.00,0.0021
1881.00,0.0020
1868.00,0.0024
1855.00,0.0022
1842.00,0.0024
1829.00,0.0024
1816.00,0.0021
1803.00,0.0029
1790.00,0.0035
1777.00,0.0038
1764.00,0.0036
1751.00,0.0037
1738.00,0.0037
1725.00,0.0040
1712.00,0.0052
1699.00,0.0061
1686.00,0.0071
1673.00,0.0099
1660.00,0.0182
1647.00,0.0479
1634.00,0.1196
1621.00,0.0669
1608.00,0.0404
1595.00,0.0532
1582.00,0.1221
1569.00,0.1194
1556.00,0.0700
1543.00,0.0420
1530.00,0.0372
1517.00,0.0316
1504.00,0.0207
1491.00,0.0180
1478.00,0.0232
1465.00,0.0415
1452.00,0.0953
1439.00,0.1152
1426.00,0.0610
1413.00,0.0528
1400.00,0.0589
1387.00,0.0490
1374.00,0.0631
1361.00,0.0569
1348.00,0.0755
1335.00,0.0685
1322.00,0.0853
1309.00,0.0596
1296.00,0.0545
1283.00,0.0839
1270.00,0.0449
1257.00,0.0351
1244.00,0.0715
1231.00,0.0417
1218.00,0.0403
1205.00,0.0705
1192.00,0.0272
1179.00,0.0333
1166.00,0.0443
1153.00,0.0327
1140.00,0.0183
1127.00,0.0112
1114.00,0.0104
1101.00,0.0216
1088.00,0.0147
1075.00,0.0139
1062.00,0.0238
1049.00,0.0451
1036.00,0.0744
1023.00,0.0412
1010.00,0.0233
997.00,0.0275
984.00,0.0202
971.00,0.0159
958.00,0.0271
945.00,0.0232
932.00,0.0204
919.00,0.0322
906.00,0.0311
893.00,0.0519
880.00,0.0541
867.00,0.0468
854.00,0.0734
841.00,0.0645
828.00,0.0467
815.00,0.0263
802.00,0.0486
789.00,0.0377
776.00,0.0322
763.00,0.0330
750.00,0.0256
737.00,0.0339
724.00,0.0293
711.00,0.0285
698.00,0.0282
685.00,0.0357
672.00,0.0395
659.00,0.0269
646.00,0.0269
633.00,0.0302
620.00,0.0256
607.00,0.0282
594.00,0.0276
581.00,0.0404
568.00,0.0199
555.00,0.0391
542.00,0.0328
529.00,0.0348
516.00,0.0246
503.00,0.0355
490.00,0.0800
477.00,0.0803
464.00,0.0720
451.00,0.0521
438.00,0.0461
425.00,0.0343
412.00,0.0304
400.00,0.0307