File: FTIR/Olivia/2025_06_06_Standard_post_Polystyrene_scan3.csv
Created as New Dataset,Sample 631 By YargerLab Date Friday, June 06 2025
cm-1,A
4000.00,0.0018
3987.00,0.0018
3974.00,0.0017
3961.00,0.0016
3948.00,0.0017
3935.00,0.0018
3922.00,0.0017
3909.00,0.0017
3896.00,0.0017
3883.00,0.0018
3870.00,0.0017
3857.00,0.0018
3844.00,0.0018
3831.00,0.0017
3818.00,0.0017
3805.00,0.0018
3792.00,0.0017
3779.00,0.0017
3766.00,0.0018
3753.00,0.0018
3740.00,0.0017
3727.00,0.0016
3714.00,0.0017
3701.00,0.0016
3688.00,0.0016
3675.00,0.0015
3662.00,0.0012
3649.00,0.0015
3636.00,0.0014
3623.00,0.0016
3610.00,0.0016
3597.00,0.0016
3584.00,0.0016
3571.00,0.0016
3558.00,0.0016
3545.00,0.0017
3532.00,0.0018
3519.00,0.0019
3506.00,0.0019
3493.00,0.0020
3480.00,0.0020
3467.00,0.0021
3454.00,0.0021
3441.00,0.0022
3428.00,0.0021
3415.00,0.0021
3402.00,0.0021
3389.00,0.0021
3376.00,0.0021
3363.00,0.0021
3350.00,0.0021
3337.00,0.0021
3324.00,0.0021
3311.00,0.0021
3298.00,0.0021
3285.00,0.0021
3272.00,0.0021
3259.00,0.0020
3246.00,0.0020
3233.00,0.0020
3220.00,0.0020
3207.00,0.0021
3194.00,0.0020
3181.00,0.0020
3168.00,0.0021
3155.00,0.0020
3142.00,0.0020
3129.00,0.0021
3116.00,0.0026
3103.00,0.0049
3090.00,0.0067
3077.00,0.0095
3064.00,0.0138
3051.00,0.0100
3038.00,0.0110
3025.00,0.0307
3012.00,0.0083
2999.00,0.0068
2986.00,0.0021
2973.00,0.0018
2960.00,0.0048
2947.00,0.0114
2934.00,0.0253
2921.00,0.0355
2908.00,0.0265
2895.00,0.0151
2882.00,0.0102
2869.00,0.0083
2856.00,0.0133
2843.00,0.0128
2830.00,0.0047
2817.00,0.0037
2804.00,0.0035
2791.00,0.0031
2778.00,0.0030
2765.00,0.0028
2752.00,0.0027
2739.00,0.0027
2726.00,0.0028
2713.00,0.0027
2700.00,0.0027
2687.00,0.0028
2674.00,0.0027
2661.00,0.0030
2648.00,0.0032
2635.00,0.0033
2622.00,0.0030
2609.00,0.0029
2596.00,0.0028
2583.00,0.0028
2570.00,0.0025
2557.00,0.0025
2544.00,0.0024
2531.00,0.0023
2518.00,0.0023
2505.00,0.0022
2492.00,0.0022
2479.00,0.0021
2466.00,0.0020
2453.00,0.0022
2440.00,0.0019
2427.00,0.0018
2414.00,0.0018
2401.00,0.0016
2388.00,0.0016
2375.00,0.0017
2362.00,0.0019
2349.00,0.0012
2336.00,0.0023
2323.00,0.0033
2310.00,0.0027
2297.00,0.0027
2284.00,0.0029
2271.00,0.0025
2258.00,0.0024
2245.00,0.0022
2232.00,0.0022
2219.00,0.0018
2206.00,0.0016
2193.00,0.0021
2180.00,0.0014
2167.00,0.0026
2154.00,-0.0008
2141.00,-0.0003
2128.00,0.0003
2115.00,0.0014
2102.00,0.0013
2089.00,0.0014
2076.00,0.0017
2063.00,0.0011
2050.00,0.0021
2037.00,0.0015
2024.00,0.0004
2011.00,0.0008
1998.00,0.0010
1985.00,0.0023
1972.00,0.0011
1959.00,0.0022
1946.00,0.0046
1933.00,0.0029
1920.00,0.0017
1907.00,0.0015
1894.00,0.0026
1881.00,0.0039
1868.00,0.0046
1855.00,0.0024
1842.00,0.0017
1829.00,0.0023
1816.00,0.0036
1803.00,0.0054
1790.00,0.0036
1777.00,0.0031
1764.00,0.0036
1751.00,0.0054
1738.00,0.0057
1725.00,0.0048
1712.00,0.0049
1699.00,0.0052
1686.00,0.0048
1673.00,0.0050
1660.00,0.0045
1647.00,0.0037
1634.00,0.0036
1621.00,0.0044
1608.00,0.0127
1595.00,0.0161
1582.00,0.0127
1569.00,0.0039
1556.00,0.0037
1543.00,0.0054
1530.00,0.0049
1517.00,0.0039
1504.00,0.0076
1491.00,0.0713
1478.00,0.0093
1465.00,0.0088
1452.00,0.0802
1439.00,0.0289
1426.00,0.0090
1413.00,0.0065
1400.00,0.0058
1387.00,0.0100
1374.00,0.0161
1361.00,0.0158
1348.00,0.0142
1335.00,0.0129
1322.00,0.0138
1309.00,0.0146
1296.00,0.0115
1283.00,0.0107
1270.00,0.0080
1257.00,0.0069
1244.00,0.0076
1231.00,0.0079
1218.00,0.0091
1205.00,0.0105
1192.00,0.0127
1179.00,0.0156
1166.00,0.0090
1153.00,0.0154
1140.00,0.0068
1127.00,0.0067
1114.00,0.0097
1101.00,0.0100
1088.00,0.0115
1075.00,0.0186
1062.00,0.0186
1049.00,0.0126
1036.00,0.0178
1023.00,0.0303
1010.00,0.0163
997.00,0.0131
984.00,0.0148
971.00,0.0140
958.00,0.0130
945.00,0.0128
932.00,0.0097
919.00,0.0117
906.00,0.0279
893.00,0.0103
880.00,0.0074
867.00,0.0065
854.00,0.0074
841.00,0.0143
828.00,0.0065
815.00,0.0062
802.00,0.0073
789.00,0.0140
776.00,0.0355
763.00,0.0942
750.00,0.1215
737.00,0.0501
724.00,0.0138
711.00,0.0314
698.00,0.3475
685.00,0.1119
672.00,0.0499
659.00,0.0295
646.00,0.0188
633.00,0.0211
620.00,0.0253
607.00,0.0195
594.00,0.0215
581.00,0.0279
568.00,0.0475
555.00,0.0684
542.00,0.1085
529.00,0.0757
516.00,0.0371
503.00,0.0248
490.00,0.0190
477.00,0.0160
464.00,0.0142
451.00,0.0127
438.00,0.0125
425.00,0.0118
412.00,0.0116
400.00,0.0095