File: FTIR/Olivia/2025_08_06_1CBN_3PVP29_MP_Powder_Scan1.csv
Created as New Dataset,Sample 1091 By YargerLab Date Wednesday, August 06 2025
cm-1,A
4000.00,0.0004
3987.00,0.0004
3974.00,0.0004
3961.00,0.0004
3948.00,0.0004
3935.00,0.0004
3922.00,0.0003
3909.00,0.0004
3896.00,0.0003
3883.00,0.0002
3870.00,0.0002
3857.00,0.0003
3844.00,0.0004
3831.00,0.0004
3818.00,0.0002
3805.00,0.0003
3792.00,0.0004
3779.00,0.0004
3766.00,0.0003
3753.00,0.0003
3740.00,0.0003
3727.00,0.0004
3714.00,0.0004
3701.00,0.0004
3688.00,0.0003
3675.00,0.0003
3662.00,0.0005
3649.00,0.0003
3636.00,0.0007
3623.00,0.0007
3610.00,0.0009
3597.00,0.0012
3584.00,0.0014
3571.00,0.0018
3558.00,0.0021
3545.00,0.0024
3532.00,0.0029
3519.00,0.0030
3506.00,0.0033
3493.00,0.0036
3480.00,0.0037
3467.00,0.0040
3454.00,0.0043
3441.00,0.0045
3428.00,0.0048
3415.00,0.0052
3402.00,0.0057
3389.00,0.0058
3376.00,0.0055
3363.00,0.0050
3350.00,0.0045
3337.00,0.0042
3324.00,0.0040
3311.00,0.0039
3298.00,0.0040
3285.00,0.0040
3272.00,0.0041
3259.00,0.0041
3246.00,0.0042
3233.00,0.0043
3220.00,0.0043
3207.00,0.0041
3194.00,0.0039
3181.00,0.0036
3168.00,0.0031
3155.00,0.0028
3142.00,0.0025
3129.00,0.0021
3116.00,0.0019
3103.00,0.0017
3090.00,0.0017
3077.00,0.0015
3064.00,0.0015
3051.00,0.0014
3038.00,0.0014
3025.00,0.0013
3012.00,0.0015
2999.00,0.0024
2986.00,0.0030
2973.00,0.0046
2960.00,0.0054
2947.00,0.0048
2934.00,0.0067
2921.00,0.0069
2908.00,0.0051
2895.00,0.0044
2882.00,0.0041
2869.00,0.0042
2856.00,0.0054
2843.00,0.0034
2830.00,0.0023
2817.00,0.0017
2804.00,0.0015
2791.00,0.0014
2778.00,0.0013
2765.00,0.0012
2752.00,0.0012
2739.00,0.0012
2726.00,0.0012
2713.00,0.0012
2700.00,0.0012
2687.00,0.0011
2674.00,0.0011
2661.00,0.0015
2648.00,0.0016
2635.00,0.0015
2622.00,0.0014
2609.00,0.0013
2596.00,0.0013
2583.00,0.0011
2570.00,0.0010
2557.00,0.0010
2544.00,0.0010
2531.00,0.0009
2518.00,0.0008
2505.00,0.0007
2492.00,0.0008
2479.00,0.0007
2466.00,0.0007
2453.00,0.0009
2440.00,0.0007
2427.00,0.0006
2414.00,0.0006
2401.00,0.0004
2388.00,0.0004
2375.00,0.0002
2362.00,0.0005
2349.00,0.0006
2336.00,0.0008
2323.00,0.0019
2310.00,0.0011
2297.00,0.0014
2284.00,0.0018
2271.00,0.0015
2258.00,0.0013
2245.00,0.0010
2232.00,0.0011
2219.00,0.0011
2206.00,0.0010
2193.00,0.0013
2180.00,0.0007
2167.00,0.0020
2154.00,-0.0013
2141.00,-0.0006
2128.00,-0.0002
2115.00,0.0008
2102.00,0.0007
2089.00,0.0007
2076.00,0.0010
2063.00,0.0008
2050.00,0.0016
2037.00,0.0013
2024.00,0.0000
2011.00,0.0005
1998.00,0.0004
1985.00,0.0013
1972.00,-0.0002
1959.00,-0.0006
1946.00,-0.0000
1933.00,-0.0002
1920.00,0.0002
1907.00,0.0004
1894.00,0.0003
1881.00,0.0002
1868.00,0.0003
1855.00,0.0004
1842.00,0.0004
1829.00,0.0004
1816.00,0.0001
1803.00,0.0006
1790.00,0.0006
1777.00,0.0006
1764.00,0.0008
1751.00,0.0009
1738.00,0.0011
1725.00,0.0015
1712.00,0.0021
1699.00,0.0044
1686.00,0.0106
1673.00,0.0179
1660.00,0.0242
1647.00,0.0283
1634.00,0.0213
1621.00,0.0182
1608.00,0.0123
1595.00,0.0070
1582.00,0.0079
1569.00,0.0055
1556.00,0.0032
1543.00,0.0028
1530.00,0.0025
1517.00,0.0028
1504.00,0.0044
1491.00,0.0075
1478.00,0.0042
1465.00,0.0117
1452.00,0.0098
1439.00,0.0158
1426.00,0.0188
1413.00,0.0124
1400.00,0.0099
1387.00,0.0082
1374.00,0.0087
1361.00,0.0088
1348.00,0.0072
1335.00,0.0059
1322.00,0.0081
1309.00,0.0082
1296.00,0.0150
1283.00,0.0225
1270.00,0.0191
1257.00,0.0116
1244.00,0.0110
1231.00,0.0127
1218.00,0.0116
1205.00,0.0095
1192.00,0.0106
1179.00,0.0076
1166.00,0.0076
1153.00,0.0094
1140.00,0.0056
1127.00,0.0100
1114.00,0.0071
1101.00,0.0086
1088.00,0.0058
1075.00,0.0058
1062.00,0.0067
1049.00,0.0133
1036.00,0.0089
1023.00,0.0125
1010.00,0.0080
997.00,0.0083
984.00,0.0059
971.00,0.0052
958.00,0.0051
945.00,0.0033
932.00,0.0056
919.00,0.0053
906.00,0.0049
893.00,0.0055
880.00,0.0046
867.00,0.0083
854.00,0.0082
841.00,0.0085
828.00,0.0075
815.00,0.0109
802.00,0.0056
789.00,0.0057
776.00,0.0066
763.00,0.0073
750.00,0.0083
737.00,0.0114
724.00,0.0108
711.00,0.0106
698.00,0.0113
685.00,0.0121
672.00,0.0148
659.00,0.0162
646.00,0.0170
633.00,0.0159
620.00,0.0163
607.00,0.0164
594.00,0.0185
581.00,0.0194
568.00,0.0203
555.00,0.0202
542.00,0.0207
529.00,0.0202
516.00,0.0188
503.00,0.0189
490.00,0.0186
477.00,0.0191
464.00,0.0179
451.00,0.0179
438.00,0.0173
425.00,0.0165
412.00,0.0168
400.00,0.0191