File: FTIR/Olivia/2025_07_28_CBN_PVP10kDa_Mortar_Mix_Batch_scan2.csv
Created as New Dataset,Sample 944 By YargerLab Date Monday, July 28 2025
cm-1,A
4000.00,0.0040
3987.00,0.0040
3974.00,0.0040
3961.00,0.0040
3948.00,0.0040
3935.00,0.0040
3922.00,0.0040
3909.00,0.0040
3896.00,0.0040
3883.00,0.0039
3870.00,0.0039
3857.00,0.0040
3844.00,0.0039
3831.00,0.0039
3818.00,0.0039
3805.00,0.0040
3792.00,0.0040
3779.00,0.0041
3766.00,0.0041
3753.00,0.0040
3740.00,0.0039
3727.00,0.0039
3714.00,0.0039
3701.00,0.0039
3688.00,0.0039
3675.00,0.0042
3662.00,0.0044
3649.00,0.0046
3636.00,0.0050
3623.00,0.0055
3610.00,0.0061
3597.00,0.0070
3584.00,0.0080
3571.00,0.0091
3558.00,0.0103
3545.00,0.0114
3532.00,0.0124
3519.00,0.0131
3506.00,0.0137
3493.00,0.0143
3480.00,0.0150
3467.00,0.0160
3454.00,0.0169
3441.00,0.0179
3428.00,0.0190
3415.00,0.0203
3402.00,0.0210
3389.00,0.0206
3376.00,0.0194
3363.00,0.0182
3350.00,0.0171
3337.00,0.0166
3324.00,0.0162
3311.00,0.0162
3298.00,0.0163
3285.00,0.0166
3272.00,0.0165
3259.00,0.0168
3246.00,0.0169
3233.00,0.0165
3220.00,0.0162
3207.00,0.0153
3194.00,0.0142
3181.00,0.0132
3168.00,0.0120
3155.00,0.0109
3142.00,0.0099
3129.00,0.0091
3116.00,0.0085
3103.00,0.0080
3090.00,0.0079
3077.00,0.0077
3064.00,0.0075
3051.00,0.0076
3038.00,0.0078
3025.00,0.0078
3012.00,0.0082
2999.00,0.0114
2986.00,0.0169
2973.00,0.0233
2960.00,0.0286
2947.00,0.0255
2934.00,0.0327
2921.00,0.0351
2908.00,0.0256
2895.00,0.0215
2882.00,0.0204
2869.00,0.0222
2856.00,0.0266
2843.00,0.0166
2830.00,0.0113
2817.00,0.0089
2804.00,0.0079
2791.00,0.0073
2778.00,0.0069
2765.00,0.0066
2752.00,0.0066
2739.00,0.0067
2726.00,0.0068
2713.00,0.0066
2700.00,0.0063
2687.00,0.0062
2674.00,0.0061
2661.00,0.0066
2648.00,0.0067
2635.00,0.0066
2622.00,0.0063
2609.00,0.0061
2596.00,0.0062
2583.00,0.0062
2570.00,0.0061
2557.00,0.0059
2544.00,0.0058
2531.00,0.0057
2518.00,0.0055
2505.00,0.0053
2492.00,0.0053
2479.00,0.0052
2466.00,0.0052
2453.00,0.0053
2440.00,0.0051
2427.00,0.0050
2414.00,0.0050
2401.00,0.0048
2388.00,0.0047
2375.00,0.0044
2362.00,0.0044
2349.00,0.0046
2336.00,0.0049
2323.00,0.0061
2310.00,0.0053
2297.00,0.0056
2284.00,0.0060
2271.00,0.0054
2258.00,0.0052
2245.00,0.0051
2232.00,0.0050
2219.00,0.0051
2206.00,0.0049
2193.00,0.0054
2180.00,0.0050
2167.00,0.0062
2154.00,0.0026
2141.00,0.0033
2128.00,0.0038
2115.00,0.0048
2102.00,0.0046
2089.00,0.0046
2076.00,0.0047
2063.00,0.0042
2050.00,0.0050
2037.00,0.0046
2024.00,0.0037
2011.00,0.0035
1998.00,0.0040
1985.00,0.0046
1972.00,0.0032
1959.00,0.0030
1946.00,0.0034
1933.00,0.0034
1920.00,0.0039
1907.00,0.0046
1894.00,0.0044
1881.00,0.0041
1868.00,0.0043
1855.00,0.0043
1842.00,0.0043
1829.00,0.0043
1816.00,0.0041
1803.00,0.0047
1790.00,0.0047
1777.00,0.0052
1764.00,0.0053
1751.00,0.0060
1738.00,0.0063
1725.00,0.0080
1712.00,0.0115
1699.00,0.0247
1686.00,0.0556
1673.00,0.0859
1660.00,0.1020
1647.00,0.0972
1634.00,0.0654
1621.00,0.0666
1608.00,0.0446
1595.00,0.0258
1582.00,0.0359
1569.00,0.0227
1556.00,0.0138
1543.00,0.0123
1530.00,0.0116
1517.00,0.0136
1504.00,0.0201
1491.00,0.0318
1478.00,0.0184
1465.00,0.0464
1452.00,0.0412
1439.00,0.0604
1426.00,0.0803
1413.00,0.0579
1400.00,0.0472
1387.00,0.0357
1374.00,0.0378
1361.00,0.0409
1348.00,0.0295
1335.00,0.0251
1322.00,0.0333
1309.00,0.0340
1296.00,0.0558
1283.00,0.0886
1270.00,0.0776
1257.00,0.0499
1244.00,0.0442
1231.00,0.0545
1218.00,0.0469
1205.00,0.0373
1192.00,0.0448
1179.00,0.0296
1166.00,0.0315
1153.00,0.0424
1140.00,0.0233
1127.00,0.0434
1114.00,0.0258
1101.00,0.0315
1088.00,0.0209
1075.00,0.0217
1062.00,0.0287
1049.00,0.0534
1036.00,0.0315
1023.00,0.0426
1010.00,0.0249
997.00,0.0275
984.00,0.0188
971.00,0.0172
958.00,0.0161
945.00,0.0153
932.00,0.0219
919.00,0.0196
906.00,0.0165
893.00,0.0207
880.00,0.0175
867.00,0.0333
854.00,0.0316
841.00,0.0332
828.00,0.0291
815.00,0.0415
802.00,0.0169
789.00,0.0162
776.00,0.0196
763.00,0.0210
750.00,0.0255
737.00,0.0373
724.00,0.0318
711.00,0.0295
698.00,0.0320
685.00,0.0360
672.00,0.0439
659.00,0.0519
646.00,0.0552
633.00,0.0488
620.00,0.0494
607.00,0.0496
594.00,0.0568
581.00,0.0634
568.00,0.0647
555.00,0.0620
542.00,0.0602
529.00,0.0601
516.00,0.0533
503.00,0.0535
490.00,0.0537
477.00,0.0532
464.00,0.0524
451.00,0.0519
438.00,0.0498
425.00,0.0467
412.00,0.0475
400.00,0.0460