File: FTIR/Olivia/2025_06_24_Polystyrene_Std_scan1.csv
Created as New Dataset,Sample 715 By YargerLab Date Monday, June 23 2025
cm-1,A
4000.00,0.0020
3987.00,0.0020
3974.00,0.0019
3961.00,0.0019
3948.00,0.0020
3935.00,0.0019
3922.00,0.0019
3909.00,0.0019
3896.00,0.0020
3883.00,0.0020
3870.00,0.0020
3857.00,0.0020
3844.00,0.0019
3831.00,0.0021
3818.00,0.0021
3805.00,0.0021
3792.00,0.0020
3779.00,0.0019
3766.00,0.0021
3753.00,0.0023
3740.00,0.0022
3727.00,0.0020
3714.00,0.0020
3701.00,0.0019
3688.00,0.0019
3675.00,0.0014
3662.00,0.0011
3649.00,0.0015
3636.00,0.0014
3623.00,0.0018
3610.00,0.0019
3597.00,0.0018
3584.00,0.0019
3571.00,0.0019
3558.00,0.0019
3545.00,0.0020
3532.00,0.0021
3519.00,0.0020
3506.00,0.0022
3493.00,0.0023
3480.00,0.0022
3467.00,0.0023
3454.00,0.0023
3441.00,0.0023
3428.00,0.0023
3415.00,0.0024
3402.00,0.0023
3389.00,0.0024
3376.00,0.0023
3363.00,0.0023
3350.00,0.0024
3337.00,0.0023
3324.00,0.0024
3311.00,0.0024
3298.00,0.0024
3285.00,0.0023
3272.00,0.0023
3259.00,0.0022
3246.00,0.0022
3233.00,0.0022
3220.00,0.0022
3207.00,0.0023
3194.00,0.0022
3181.00,0.0021
3168.00,0.0022
3155.00,0.0022
3142.00,0.0022
3129.00,0.0022
3116.00,0.0026
3103.00,0.0046
3090.00,0.0060
3077.00,0.0084
3064.00,0.0119
3051.00,0.0089
3038.00,0.0097
3025.00,0.0261
3012.00,0.0070
2999.00,0.0041
2986.00,-0.0008
2973.00,-0.0012
2960.00,0.0032
2947.00,0.0095
2934.00,0.0221
2921.00,0.0320
2908.00,0.0232
2895.00,0.0130
2882.00,0.0085
2869.00,0.0075
2856.00,0.0126
2843.00,0.0120
2830.00,0.0044
2817.00,0.0035
2804.00,0.0033
2791.00,0.0029
2778.00,0.0028
2765.00,0.0027
2752.00,0.0026
2739.00,0.0026
2726.00,0.0027
2713.00,0.0027
2700.00,0.0026
2687.00,0.0026
2674.00,0.0026
2661.00,0.0029
2648.00,0.0031
2635.00,0.0032
2622.00,0.0029
2609.00,0.0029
2596.00,0.0028
2583.00,0.0027
2570.00,0.0025
2557.00,0.0023
2544.00,0.0023
2531.00,0.0023
2518.00,0.0023
2505.00,0.0022
2492.00,0.0022
2479.00,0.0021
2466.00,0.0020
2453.00,0.0021
2440.00,0.0020
2427.00,0.0018
2414.00,0.0018
2401.00,0.0017
2388.00,0.0016
2375.00,0.0017
2362.00,0.0018
2349.00,0.0018
2336.00,0.0024
2323.00,0.0031
2310.00,0.0027
2297.00,0.0026
2284.00,0.0029
2271.00,0.0025
2258.00,0.0024
2245.00,0.0021
2232.00,0.0021
2219.00,0.0020
2206.00,0.0020
2193.00,0.0022
2180.00,0.0014
2167.00,0.0026
2154.00,-0.0005
2141.00,-0.0001
2128.00,0.0001
2115.00,0.0016
2102.00,0.0013
2089.00,0.0014
2076.00,0.0015
2063.00,0.0013
2050.00,0.0022
2037.00,0.0017
2024.00,0.0009
2011.00,0.0007
1998.00,0.0011
1985.00,0.0025
1972.00,0.0014
1959.00,0.0016
1946.00,0.0040
1933.00,0.0027
1920.00,0.0017
1907.00,0.0016
1894.00,0.0024
1881.00,0.0036
1868.00,0.0041
1855.00,0.0025
1842.00,0.0016
1829.00,0.0022
1816.00,0.0032
1803.00,0.0048
1790.00,0.0032
1777.00,0.0028
1764.00,0.0031
1751.00,0.0050
1738.00,0.0057
1725.00,0.0048
1712.00,0.0041
1699.00,0.0038
1686.00,0.0040
1673.00,0.0044
1660.00,0.0042
1647.00,0.0037
1634.00,0.0037
1621.00,0.0042
1608.00,0.0113
1595.00,0.0144
1582.00,0.0118
1569.00,0.0043
1556.00,0.0041
1543.00,0.0056
1530.00,0.0043
1517.00,0.0039
1504.00,0.0066
1491.00,0.0602
1478.00,0.0082
1465.00,0.0083
1452.00,0.0686
1439.00,0.0252
1426.00,0.0083
1413.00,0.0060
1400.00,0.0046
1387.00,0.0075
1374.00,0.0134
1361.00,0.0134
1348.00,0.0124
1335.00,0.0113
1322.00,0.0122
1309.00,0.0126
1296.00,0.0103
1283.00,0.0092
1270.00,0.0069
1257.00,0.0058
1244.00,0.0063
1231.00,0.0066
1218.00,0.0072
1205.00,0.0091
1192.00,0.0110
1179.00,0.0131
1166.00,0.0069
1153.00,0.0122
1140.00,0.0046
1127.00,0.0049
1114.00,0.0076
1101.00,0.0078
1088.00,0.0090
1075.00,0.0150
1062.00,0.0152
1049.00,0.0107
1036.00,0.0156
1023.00,0.0264
1010.00,0.0144
997.00,0.0113
984.00,0.0127
971.00,0.0111
958.00,0.0100
945.00,0.0100
932.00,0.0081
919.00,0.0103
906.00,0.0248
893.00,0.0093
880.00,0.0070
867.00,0.0062
854.00,0.0070
841.00,0.0130
828.00,0.0060
815.00,0.0057
802.00,0.0069
789.00,0.0129
776.00,0.0315
763.00,0.0831
750.00,0.1088
737.00,0.0456
724.00,0.0131
711.00,0.0283
698.00,0.3001
685.00,0.1060
672.00,0.0468
659.00,0.0275
646.00,0.0175
633.00,0.0194
620.00,0.0233
607.00,0.0180
594.00,0.0199
581.00,0.0255
568.00,0.0439
555.00,0.0625
542.00,0.0992
529.00,0.0706
516.00,0.0343
503.00,0.0226
490.00,0.0171
477.00,0.0146
464.00,0.0131
451.00,0.0128
438.00,0.0118
425.00,0.0112
412.00,0.0097
400.00,0.0090