File: FTIR/Olivia/2025_07_15_Polystyrene_Std_scan2.csv
Created as New Dataset,Sample 820 By YargerLab Date Tuesday, July 15 2025
cm-1,A
4000.00,0.0019
3987.00,0.0017
3974.00,0.0018
3961.00,0.0017
3948.00,0.0017
3935.00,0.0017
3922.00,0.0016
3909.00,0.0016
3896.00,0.0015
3883.00,0.0014
3870.00,0.0014
3857.00,0.0015
3844.00,0.0015
3831.00,0.0016
3818.00,0.0015
3805.00,0.0015
3792.00,0.0017
3779.00,0.0017
3766.00,0.0016
3753.00,0.0015
3740.00,0.0015
3727.00,0.0015
3714.00,0.0014
3701.00,0.0016
3688.00,0.0013
3675.00,0.0007
3662.00,0.0008
3649.00,0.0006
3636.00,0.0011
3623.00,0.0016
3610.00,0.0015
3597.00,0.0018
3584.00,0.0019
3571.00,0.0019
3558.00,0.0021
3545.00,0.0022
3532.00,0.0023
3519.00,0.0024
3506.00,0.0024
3493.00,0.0026
3480.00,0.0026
3467.00,0.0027
3454.00,0.0028
3441.00,0.0028
3428.00,0.0028
3415.00,0.0028
3402.00,0.0028
3389.00,0.0027
3376.00,0.0027
3363.00,0.0028
3350.00,0.0027
3337.00,0.0027
3324.00,0.0027
3311.00,0.0027
3298.00,0.0026
3285.00,0.0026
3272.00,0.0026
3259.00,0.0026
3246.00,0.0025
3233.00,0.0024
3220.00,0.0023
3207.00,0.0025
3194.00,0.0024
3181.00,0.0023
3168.00,0.0024
3155.00,0.0024
3142.00,0.0022
3129.00,0.0023
3116.00,0.0029
3103.00,0.0052
3090.00,0.0070
3077.00,0.0099
3064.00,0.0144
3051.00,0.0105
3038.00,0.0114
3025.00,0.0319
3012.00,0.0081
2999.00,0.0046
2986.00,-0.0016
2973.00,-0.0022
2960.00,0.0029
2947.00,0.0105
2934.00,0.0255
2921.00,0.0371
2908.00,0.0271
2895.00,0.0147
2882.00,0.0095
2869.00,0.0082
2856.00,0.0139
2843.00,0.0135
2830.00,0.0048
2817.00,0.0037
2804.00,0.0033
2791.00,0.0030
2778.00,0.0029
2765.00,0.0027
2752.00,0.0026
2739.00,0.0026
2726.00,0.0026
2713.00,0.0027
2700.00,0.0027
2687.00,0.0026
2674.00,0.0026
2661.00,0.0029
2648.00,0.0030
2635.00,0.0031
2622.00,0.0029
2609.00,0.0029
2596.00,0.0028
2583.00,0.0027
2570.00,0.0024
2557.00,0.0024
2544.00,0.0022
2531.00,0.0021
2518.00,0.0022
2505.00,0.0021
2492.00,0.0020
2479.00,0.0020
2466.00,0.0019
2453.00,0.0020
2440.00,0.0018
2427.00,0.0017
2414.00,0.0016
2401.00,0.0015
2388.00,0.0015
2375.00,0.0015
2362.00,0.0018
2349.00,0.0020
2336.00,0.0024
2323.00,0.0033
2310.00,0.0028
2297.00,0.0025
2284.00,0.0028
2271.00,0.0024
2258.00,0.0023
2245.00,0.0019
2232.00,0.0018
2219.00,0.0017
2206.00,0.0016
2193.00,0.0019
2180.00,0.0012
2167.00,0.0026
2154.00,-0.0010
2141.00,-0.0002
2128.00,0.0001
2115.00,0.0013
2102.00,0.0013
2089.00,0.0012
2076.00,0.0015
2063.00,0.0010
2050.00,0.0017
2037.00,0.0013
2024.00,0.0009
2011.00,0.0006
1998.00,0.0008
1985.00,0.0020
1972.00,0.0009
1959.00,0.0020
1946.00,0.0046
1933.00,0.0028
1920.00,0.0015
1907.00,0.0013
1894.00,0.0024
1881.00,0.0039
1868.00,0.0046
1855.00,0.0023
1842.00,0.0016
1829.00,0.0023
1816.00,0.0034
1803.00,0.0054
1790.00,0.0033
1777.00,0.0028
1764.00,0.0031
1751.00,0.0053
1738.00,0.0058
1725.00,0.0048
1712.00,0.0042
1699.00,0.0044
1686.00,0.0054
1673.00,0.0065
1660.00,0.0063
1647.00,0.0051
1634.00,0.0043
1621.00,0.0047
1608.00,0.0128
1595.00,0.0165
1582.00,0.0132
1569.00,0.0044
1556.00,0.0042
1543.00,0.0061
1530.00,0.0043
1517.00,0.0042
1504.00,0.0072
1491.00,0.0712
1478.00,0.0092
1465.00,0.0092
1452.00,0.0796
1439.00,0.0290
1426.00,0.0094
1413.00,0.0064
1400.00,0.0049
1387.00,0.0082
1374.00,0.0152
1361.00,0.0153
1348.00,0.0138
1335.00,0.0126
1322.00,0.0136
1309.00,0.0140
1296.00,0.0116
1283.00,0.0102
1270.00,0.0072
1257.00,0.0057
1244.00,0.0063
1231.00,0.0067
1218.00,0.0076
1205.00,0.0099
1192.00,0.0120
1179.00,0.0143
1166.00,0.0072
1153.00,0.0130
1140.00,0.0045
1127.00,0.0048
1114.00,0.0077
1101.00,0.0079
1088.00,0.0093
1075.00,0.0163
1062.00,0.0166
1049.00,0.0116
1036.00,0.0171
1023.00,0.0293
1010.00,0.0158
997.00,0.0124
984.00,0.0140
971.00,0.0120
958.00,0.0105
945.00,0.0105
932.00,0.0083
919.00,0.0110
906.00,0.0272
893.00,0.0099
880.00,0.0071
867.00,0.0063
854.00,0.0070
841.00,0.0137
828.00,0.0061
815.00,0.0058
802.00,0.0070
789.00,0.0136
776.00,0.0345
763.00,0.0911
750.00,0.1186
737.00,0.0492
724.00,0.0139
711.00,0.0307
698.00,0.3200
685.00,0.1104
672.00,0.0489
659.00,0.0289
646.00,0.0184
633.00,0.0205
620.00,0.0246
607.00,0.0190
594.00,0.0213
581.00,0.0274
568.00,0.0463
555.00,0.0669
542.00,0.1058
529.00,0.0748
516.00,0.0360
503.00,0.0238
490.00,0.0181
477.00,0.0152
464.00,0.0144
451.00,0.0129
438.00,0.0126
425.00,0.0112
412.00,0.0113
400.00,0.0092