File: FTIR/Olivia/2025_08_04_1CBN_3PVP10kDa_MC_powder_scan1.csv
Created as New Dataset,Sample 1042 By YargerLab Date Monday, August 04 2025
cm-1,A
4000.00,0.0045
3987.00,0.0045
3974.00,0.0045
3961.00,0.0046
3948.00,0.0045
3935.00,0.0046
3922.00,0.0046
3909.00,0.0046
3896.00,0.0047
3883.00,0.0048
3870.00,0.0048
3857.00,0.0048
3844.00,0.0047
3831.00,0.0048
3818.00,0.0048
3805.00,0.0049
3792.00,0.0046
3779.00,0.0046
3766.00,0.0047
3753.00,0.0050
3740.00,0.0049
3727.00,0.0046
3714.00,0.0048
3701.00,0.0045
3688.00,0.0049
3675.00,0.0051
3662.00,0.0048
3649.00,0.0054
3636.00,0.0054
3623.00,0.0059
3610.00,0.0065
3597.00,0.0070
3584.00,0.0078
3571.00,0.0087
3558.00,0.0096
3545.00,0.0105
3532.00,0.0113
3519.00,0.0120
3506.00,0.0126
3493.00,0.0131
3480.00,0.0137
3467.00,0.0145
3454.00,0.0152
3441.00,0.0160
3428.00,0.0169
3415.00,0.0180
3402.00,0.0185
3389.00,0.0183
3376.00,0.0175
3363.00,0.0166
3350.00,0.0159
3337.00,0.0153
3324.00,0.0152
3311.00,0.0151
3298.00,0.0152
3285.00,0.0155
3272.00,0.0154
3259.00,0.0156
3246.00,0.0157
3233.00,0.0154
3220.00,0.0150
3207.00,0.0143
3194.00,0.0133
3181.00,0.0125
3168.00,0.0116
3155.00,0.0106
3142.00,0.0098
3129.00,0.0092
3116.00,0.0087
3103.00,0.0082
3090.00,0.0080
3077.00,0.0078
3064.00,0.0075
3051.00,0.0075
3038.00,0.0075
3025.00,0.0074
3012.00,0.0075
2999.00,0.0093
2986.00,0.0126
2973.00,0.0168
2960.00,0.0205
2947.00,0.0184
2934.00,0.0234
2921.00,0.0252
2908.00,0.0186
2895.00,0.0159
2882.00,0.0151
2869.00,0.0166
2856.00,0.0197
2843.00,0.0129
2830.00,0.0095
2817.00,0.0081
2804.00,0.0075
2791.00,0.0070
2778.00,0.0068
2765.00,0.0066
2752.00,0.0066
2739.00,0.0066
2726.00,0.0067
2713.00,0.0065
2700.00,0.0064
2687.00,0.0063
2674.00,0.0062
2661.00,0.0067
2648.00,0.0068
2635.00,0.0067
2622.00,0.0065
2609.00,0.0064
2596.00,0.0064
2583.00,0.0064
2570.00,0.0063
2557.00,0.0062
2544.00,0.0061
2531.00,0.0060
2518.00,0.0058
2505.00,0.0057
2492.00,0.0056
2479.00,0.0056
2466.00,0.0055
2453.00,0.0057
2440.00,0.0056
2427.00,0.0054
2414.00,0.0054
2401.00,0.0053
2388.00,0.0052
2375.00,0.0050
2362.00,0.0049
2349.00,0.0050
2336.00,0.0054
2323.00,0.0063
2310.00,0.0054
2297.00,0.0059
2284.00,0.0064
2271.00,0.0059
2258.00,0.0057
2245.00,0.0057
2232.00,0.0057
2219.00,0.0058
2206.00,0.0057
2193.00,0.0057
2180.00,0.0053
2167.00,0.0066
2154.00,0.0031
2141.00,0.0039
2128.00,0.0044
2115.00,0.0056
2102.00,0.0053
2089.00,0.0051
2076.00,0.0053
2063.00,0.0054
2050.00,0.0062
2037.00,0.0052
2024.00,0.0043
2011.00,0.0041
1998.00,0.0049
1985.00,0.0049
1972.00,0.0038
1959.00,0.0032
1946.00,0.0039
1933.00,0.0039
1920.00,0.0042
1907.00,0.0047
1894.00,0.0047
1881.00,0.0044
1868.00,0.0045
1855.00,0.0046
1842.00,0.0045
1829.00,0.0044
1816.00,0.0042
1803.00,0.0045
1790.00,0.0045
1777.00,0.0047
1764.00,0.0048
1751.00,0.0050
1738.00,0.0053
1725.00,0.0062
1712.00,0.0077
1699.00,0.0144
1686.00,0.0352
1673.00,0.0583
1660.00,0.0745
1647.00,0.0752
1634.00,0.0543
1621.00,0.0521
1608.00,0.0362
1595.00,0.0221
1582.00,0.0283
1569.00,0.0187
1556.00,0.0121
1543.00,0.0109
1530.00,0.0101
1517.00,0.0110
1504.00,0.0153
1491.00,0.0236
1478.00,0.0145
1465.00,0.0347
1452.00,0.0301
1439.00,0.0458
1426.00,0.0550
1413.00,0.0383
1400.00,0.0340
1387.00,0.0260
1374.00,0.0269
1361.00,0.0290
1348.00,0.0220
1335.00,0.0190
1322.00,0.0252
1309.00,0.0247
1296.00,0.0421
1283.00,0.0619
1270.00,0.0536
1257.00,0.0338
1244.00,0.0315
1231.00,0.0378
1218.00,0.0339
1205.00,0.0280
1192.00,0.0328
1179.00,0.0229
1166.00,0.0239
1153.00,0.0317
1140.00,0.0189
1127.00,0.0326
1114.00,0.0206
1101.00,0.0245
1088.00,0.0175
1075.00,0.0179
1062.00,0.0229
1049.00,0.0397
1036.00,0.0239
1023.00,0.0312
1010.00,0.0198
997.00,0.0215
984.00,0.0160
971.00,0.0147
958.00,0.0141
945.00,0.0135
932.00,0.0175
919.00,0.0162
906.00,0.0144
893.00,0.0171
880.00,0.0150
867.00,0.0254
854.00,0.0240
841.00,0.0252
828.00,0.0230
815.00,0.0311
802.00,0.0161
789.00,0.0160
776.00,0.0185
763.00,0.0198
750.00,0.0235
737.00,0.0317
724.00,0.0284
711.00,0.0272
698.00,0.0292
685.00,0.0321
672.00,0.0374
659.00,0.0428
646.00,0.0462
633.00,0.0425
620.00,0.0429
607.00,0.0432
594.00,0.0479
581.00,0.0528
568.00,0.0537
555.00,0.0522
542.00,0.0515
529.00,0.0512
516.00,0.0469
503.00,0.0477
490.00,0.0477
477.00,0.0477
464.00,0.0463
451.00,0.0447
438.00,0.0435
425.00,0.0419
412.00,0.0401
400.00,0.0415