File: FTIR/Olivia/2025_06_06_Standard_post_Polystyrene_scan2.csv
Created as New Dataset,Sample 630 By YargerLab Date Friday, June 06 2025
cm-1,A
4000.00,0.0020
3987.00,0.0018
3974.00,0.0019
3961.00,0.0018
3948.00,0.0019
3935.00,0.0019
3922.00,0.0019
3909.00,0.0018
3896.00,0.0018
3883.00,0.0019
3870.00,0.0019
3857.00,0.0019
3844.00,0.0019
3831.00,0.0019
3818.00,0.0020
3805.00,0.0020
3792.00,0.0019
3779.00,0.0018
3766.00,0.0020
3753.00,0.0019
3740.00,0.0020
3727.00,0.0018
3714.00,0.0019
3701.00,0.0018
3688.00,0.0018
3675.00,0.0017
3662.00,0.0015
3649.00,0.0018
3636.00,0.0016
3623.00,0.0018
3610.00,0.0017
3597.00,0.0018
3584.00,0.0018
3571.00,0.0018
3558.00,0.0019
3545.00,0.0020
3532.00,0.0021
3519.00,0.0022
3506.00,0.0022
3493.00,0.0024
3480.00,0.0024
3467.00,0.0025
3454.00,0.0025
3441.00,0.0026
3428.00,0.0026
3415.00,0.0025
3402.00,0.0026
3389.00,0.0027
3376.00,0.0028
3363.00,0.0029
3350.00,0.0030
3337.00,0.0030
3324.00,0.0029
3311.00,0.0029
3298.00,0.0028
3285.00,0.0026
3272.00,0.0026
3259.00,0.0025
3246.00,0.0025
3233.00,0.0025
3220.00,0.0024
3207.00,0.0025
3194.00,0.0024
3181.00,0.0023
3168.00,0.0024
3155.00,0.0024
3142.00,0.0023
3129.00,0.0024
3116.00,0.0030
3103.00,0.0057
3090.00,0.0078
3077.00,0.0108
3064.00,0.0160
3051.00,0.0115
3038.00,0.0128
3025.00,0.0352
3012.00,0.0096
2999.00,0.0082
2986.00,0.0031
2973.00,0.0031
2960.00,0.0066
2947.00,0.0142
2934.00,0.0303
2921.00,0.0420
2908.00,0.0310
2895.00,0.0179
2882.00,0.0121
2869.00,0.0100
2856.00,0.0159
2843.00,0.0148
2830.00,0.0055
2817.00,0.0042
2804.00,0.0039
2791.00,0.0035
2778.00,0.0034
2765.00,0.0031
2752.00,0.0030
2739.00,0.0030
2726.00,0.0030
2713.00,0.0030
2700.00,0.0029
2687.00,0.0030
2674.00,0.0029
2661.00,0.0032
2648.00,0.0035
2635.00,0.0035
2622.00,0.0033
2609.00,0.0032
2596.00,0.0030
2583.00,0.0029
2570.00,0.0026
2557.00,0.0026
2544.00,0.0025
2531.00,0.0025
2518.00,0.0024
2505.00,0.0024
2492.00,0.0024
2479.00,0.0022
2466.00,0.0021
2453.00,0.0022
2440.00,0.0020
2427.00,0.0019
2414.00,0.0019
2401.00,0.0016
2388.00,0.0016
2375.00,0.0017
2362.00,0.0019
2349.00,0.0020
2336.00,0.0026
2323.00,0.0035
2310.00,0.0027
2297.00,0.0027
2284.00,0.0030
2271.00,0.0024
2258.00,0.0023
2245.00,0.0022
2232.00,0.0022
2219.00,0.0018
2206.00,0.0018
2193.00,0.0019
2180.00,0.0014
2167.00,0.0026
2154.00,-0.0011
2141.00,-0.0005
2128.00,0.0001
2115.00,0.0015
2102.00,0.0013
2089.00,0.0014
2076.00,0.0015
2063.00,0.0010
2050.00,0.0021
2037.00,0.0013
2024.00,0.0006
2011.00,0.0005
1998.00,0.0010
1985.00,0.0022
1972.00,0.0008
1959.00,0.0023
1946.00,0.0048
1933.00,0.0031
1920.00,0.0018
1907.00,0.0016
1894.00,0.0026
1881.00,0.0042
1868.00,0.0048
1855.00,0.0025
1842.00,0.0016
1829.00,0.0023
1816.00,0.0037
1803.00,0.0057
1790.00,0.0036
1777.00,0.0032
1764.00,0.0038
1751.00,0.0060
1738.00,0.0067
1725.00,0.0057
1712.00,0.0066
1699.00,0.0075
1686.00,0.0069
1673.00,0.0067
1660.00,0.0059
1647.00,0.0048
1634.00,0.0045
1621.00,0.0056
1608.00,0.0146
1595.00,0.0179
1582.00,0.0141
1569.00,0.0042
1556.00,0.0041
1543.00,0.0060
1530.00,0.0069
1517.00,0.0043
1504.00,0.0092
1491.00,0.0789
1478.00,0.0109
1465.00,0.0103
1452.00,0.0883
1439.00,0.0323
1426.00,0.0104
1413.00,0.0073
1400.00,0.0066
1387.00,0.0114
1374.00,0.0180
1361.00,0.0178
1348.00,0.0161
1335.00,0.0143
1322.00,0.0156
1309.00,0.0170
1296.00,0.0131
1283.00,0.0125
1270.00,0.0093
1257.00,0.0079
1244.00,0.0090
1231.00,0.0097
1218.00,0.0119
1205.00,0.0124
1192.00,0.0145
1179.00,0.0173
1166.00,0.0101
1153.00,0.0172
1140.00,0.0080
1127.00,0.0082
1114.00,0.0118
1101.00,0.0120
1088.00,0.0128
1075.00,0.0203
1062.00,0.0202
1049.00,0.0138
1036.00,0.0195
1023.00,0.0330
1010.00,0.0175
997.00,0.0137
984.00,0.0156
971.00,0.0149
958.00,0.0138
945.00,0.0135
932.00,0.0101
919.00,0.0122
906.00,0.0293
893.00,0.0107
880.00,0.0076
867.00,0.0068
854.00,0.0076
841.00,0.0149
828.00,0.0069
815.00,0.0064
802.00,0.0077
789.00,0.0147
776.00,0.0375
763.00,0.0987
750.00,0.1268
737.00,0.0523
724.00,0.0143
711.00,0.0333
698.00,0.3523
685.00,0.1129
672.00,0.0506
659.00,0.0297
646.00,0.0190
633.00,0.0215
620.00,0.0259
607.00,0.0200
594.00,0.0220
581.00,0.0285
568.00,0.0486
555.00,0.0700
542.00,0.1106
529.00,0.0766
516.00,0.0377
503.00,0.0250
490.00,0.0184
477.00,0.0160
464.00,0.0137
451.00,0.0123
438.00,0.0120
425.00,0.0112
412.00,0.0101
400.00,0.0080