File: FTIR/Olivia/2025_08_13_Polystyrene_Standard_scan2.csv
Created as New Dataset,Sample 054 By YargerLab Date Wednesday, August 13 2025
cm-1,A
4000.00,0.0013
3987.00,0.0012
3974.00,0.0012
3961.00,0.0011
3948.00,0.0011
3935.00,0.0011
3922.00,0.0011
3909.00,0.0011
3896.00,0.0011
3883.00,0.0009
3870.00,0.0009
3857.00,0.0009
3844.00,0.0010
3831.00,0.0010
3818.00,0.0008
3805.00,0.0010
3792.00,0.0011
3779.00,0.0010
3766.00,0.0010
3753.00,0.0008
3740.00,0.0009
3727.00,0.0010
3714.00,0.0009
3701.00,0.0010
3688.00,0.0009
3675.00,0.0009
3662.00,0.0011
3649.00,0.0009
3636.00,0.0011
3623.00,0.0010
3610.00,0.0009
3597.00,0.0011
3584.00,0.0011
3571.00,0.0011
3558.00,0.0012
3545.00,0.0012
3532.00,0.0013
3519.00,0.0014
3506.00,0.0015
3493.00,0.0015
3480.00,0.0015
3467.00,0.0015
3454.00,0.0015
3441.00,0.0015
3428.00,0.0015
3415.00,0.0015
3402.00,0.0015
3389.00,0.0015
3376.00,0.0015
3363.00,0.0015
3350.00,0.0014
3337.00,0.0014
3324.00,0.0014
3311.00,0.0014
3298.00,0.0013
3285.00,0.0013
3272.00,0.0013
3259.00,0.0013
3246.00,0.0013
3233.00,0.0013
3220.00,0.0013
3207.00,0.0013
3194.00,0.0013
3181.00,0.0013
3168.00,0.0014
3155.00,0.0013
3142.00,0.0013
3129.00,0.0013
3116.00,0.0017
3103.00,0.0035
3090.00,0.0048
3077.00,0.0067
3064.00,0.0103
3051.00,0.0071
3038.00,0.0081
3025.00,0.0227
3012.00,0.0061
2999.00,0.0058
2986.00,0.0031
2973.00,0.0034
2960.00,0.0049
2947.00,0.0093
2934.00,0.0196
2921.00,0.0269
2908.00,0.0199
2895.00,0.0116
2882.00,0.0080
2869.00,0.0064
2856.00,0.0101
2843.00,0.0092
2830.00,0.0033
2817.00,0.0025
2804.00,0.0024
2791.00,0.0021
2778.00,0.0020
2765.00,0.0018
2752.00,0.0017
2739.00,0.0017
2726.00,0.0018
2713.00,0.0018
2700.00,0.0017
2687.00,0.0018
2674.00,0.0017
2661.00,0.0019
2648.00,0.0019
2635.00,0.0019
2622.00,0.0017
2609.00,0.0018
2596.00,0.0016
2583.00,0.0016
2570.00,0.0014
2557.00,0.0013
2544.00,0.0013
2531.00,0.0013
2518.00,0.0013
2505.00,0.0013
2492.00,0.0012
2479.00,0.0012
2466.00,0.0011
2453.00,0.0012
2440.00,0.0011
2427.00,0.0009
2414.00,0.0010
2401.00,0.0009
2388.00,0.0009
2375.00,0.0009
2362.00,0.0011
2349.00,0.0013
2336.00,0.0016
2323.00,0.0018
2310.00,0.0016
2297.00,0.0013
2284.00,0.0013
2271.00,0.0012
2258.00,0.0010
2245.00,0.0009
2232.00,0.0011
2219.00,0.0008
2206.00,0.0006
2193.00,0.0008
2180.00,0.0008
2167.00,0.0012
2154.00,-0.0004
2141.00,-0.0001
2128.00,-0.0000
2115.00,0.0005
2102.00,0.0004
2089.00,0.0004
2076.00,0.0007
2063.00,0.0005
2050.00,0.0007
2037.00,0.0005
2024.00,0.0001
2011.00,0.0003
1998.00,0.0003
1985.00,0.0008
1972.00,0.0005
1959.00,0.0016
1946.00,0.0029
1933.00,0.0017
1920.00,0.0008
1907.00,0.0008
1894.00,0.0015
1881.00,0.0025
1868.00,0.0027
1855.00,0.0013
1842.00,0.0009
1829.00,0.0013
1816.00,0.0023
1803.00,0.0035
1790.00,0.0022
1777.00,0.0021
1764.00,0.0023
1751.00,0.0040
1738.00,0.0048
1725.00,0.0037
1712.00,0.0030
1699.00,0.0024
1686.00,0.0022
1673.00,0.0025
1660.00,0.0025
1647.00,0.0021
1634.00,0.0020
1621.00,0.0025
1608.00,0.0083
1595.00,0.0103
1582.00,0.0081
1569.00,0.0023
1556.00,0.0022
1543.00,0.0033
1530.00,0.0024
1517.00,0.0023
1504.00,0.0048
1491.00,0.0447
1478.00,0.0057
1465.00,0.0059
1452.00,0.0518
1439.00,0.0180
1426.00,0.0054
1413.00,0.0041
1400.00,0.0041
1387.00,0.0072
1374.00,0.0110
1361.00,0.0103
1348.00,0.0091
1335.00,0.0083
1322.00,0.0087
1309.00,0.0089
1296.00,0.0072
1283.00,0.0065
1270.00,0.0052
1257.00,0.0049
1244.00,0.0052
1231.00,0.0050
1218.00,0.0052
1205.00,0.0065
1192.00,0.0082
1179.00,0.0104
1166.00,0.0065
1153.00,0.0107
1140.00,0.0048
1127.00,0.0043
1114.00,0.0058
1101.00,0.0060
1088.00,0.0074
1075.00,0.0124
1062.00,0.0119
1049.00,0.0079
1036.00,0.0111
1023.00,0.0190
1010.00,0.0101
997.00,0.0080
984.00,0.0092
971.00,0.0091
958.00,0.0086
945.00,0.0084
932.00,0.0062
919.00,0.0072
906.00,0.0172
893.00,0.0062
880.00,0.0046
867.00,0.0039
854.00,0.0044
841.00,0.0086
828.00,0.0040
815.00,0.0039
802.00,0.0045
789.00,0.0086
776.00,0.0218
763.00,0.0555
750.00,0.0695
737.00,0.0293
724.00,0.0083
711.00,0.0191
698.00,0.1671
685.00,0.0603
672.00,0.0279
659.00,0.0168
646.00,0.0112
633.00,0.0123
620.00,0.0146
607.00,0.0113
594.00,0.0128
581.00,0.0164
568.00,0.0277
555.00,0.0398
542.00,0.0611
529.00,0.0424
516.00,0.0214
503.00,0.0142
490.00,0.0114
477.00,0.0094
464.00,0.0087
451.00,0.0078
438.00,0.0081
425.00,0.0075
412.00,0.0076
400.00,0.0075