File: FTIR/Olivia/2025_08_04_1CBN_3PVP40kDa_MortPest_powder_scan2.csv
Created as New Dataset,Sample 1049 By YargerLab Date Monday, August 04 2025
cm-1,A
4000.00,0.0047
3987.00,0.0047
3974.00,0.0047
3961.00,0.0047
3948.00,0.0046
3935.00,0.0046
3922.00,0.0046
3909.00,0.0046
3896.00,0.0045
3883.00,0.0045
3870.00,0.0045
3857.00,0.0045
3844.00,0.0046
3831.00,0.0045
3818.00,0.0045
3805.00,0.0045
3792.00,0.0046
3779.00,0.0046
3766.00,0.0046
3753.00,0.0045
3740.00,0.0045
3727.00,0.0044
3714.00,0.0044
3701.00,0.0045
3688.00,0.0044
3675.00,0.0045
3662.00,0.0047
3649.00,0.0048
3636.00,0.0051
3623.00,0.0055
3610.00,0.0058
3597.00,0.0064
3584.00,0.0069
3571.00,0.0076
3558.00,0.0084
3545.00,0.0091
3532.00,0.0097
3519.00,0.0103
3506.00,0.0108
3493.00,0.0113
3480.00,0.0118
3467.00,0.0126
3454.00,0.0132
3441.00,0.0140
3428.00,0.0149
3415.00,0.0161
3402.00,0.0167
3389.00,0.0163
3376.00,0.0154
3363.00,0.0147
3350.00,0.0140
3337.00,0.0137
3324.00,0.0136
3311.00,0.0136
3298.00,0.0139
3285.00,0.0142
3272.00,0.0144
3259.00,0.0147
3246.00,0.0148
3233.00,0.0147
3220.00,0.0142
3207.00,0.0134
3194.00,0.0126
3181.00,0.0117
3168.00,0.0108
3155.00,0.0100
3142.00,0.0093
3129.00,0.0087
3116.00,0.0083
3103.00,0.0077
3090.00,0.0076
3077.00,0.0075
3064.00,0.0073
3051.00,0.0072
3038.00,0.0072
3025.00,0.0072
3012.00,0.0070
2999.00,0.0081
2986.00,0.0105
2973.00,0.0137
2960.00,0.0174
2947.00,0.0153
2934.00,0.0194
2921.00,0.0218
2908.00,0.0162
2895.00,0.0138
2882.00,0.0129
2869.00,0.0143
2856.00,0.0175
2843.00,0.0120
2830.00,0.0090
2817.00,0.0078
2804.00,0.0073
2791.00,0.0069
2778.00,0.0067
2765.00,0.0065
2752.00,0.0065
2739.00,0.0066
2726.00,0.0067
2713.00,0.0065
2700.00,0.0064
2687.00,0.0063
2674.00,0.0062
2661.00,0.0066
2648.00,0.0067
2635.00,0.0066
2622.00,0.0063
2609.00,0.0062
2596.00,0.0062
2583.00,0.0062
2570.00,0.0060
2557.00,0.0060
2544.00,0.0059
2531.00,0.0058
2518.00,0.0057
2505.00,0.0056
2492.00,0.0057
2479.00,0.0055
2466.00,0.0055
2453.00,0.0056
2440.00,0.0055
2427.00,0.0054
2414.00,0.0054
2401.00,0.0053
2388.00,0.0053
2375.00,0.0050
2362.00,0.0051
2349.00,0.0054
2336.00,0.0054
2323.00,0.0063
2310.00,0.0058
2297.00,0.0059
2284.00,0.0063
2271.00,0.0059
2258.00,0.0058
2245.00,0.0056
2232.00,0.0055
2219.00,0.0057
2206.00,0.0057
2193.00,0.0054
2180.00,0.0058
2167.00,0.0060
2154.00,0.0036
2141.00,0.0041
2128.00,0.0044
2115.00,0.0056
2102.00,0.0055
2089.00,0.0052
2076.00,0.0056
2063.00,0.0053
2050.00,0.0060
2037.00,0.0056
2024.00,0.0047
2011.00,0.0049
1998.00,0.0048
1985.00,0.0052
1972.00,0.0043
1959.00,0.0041
1946.00,0.0045
1933.00,0.0043
1920.00,0.0046
1907.00,0.0050
1894.00,0.0048
1881.00,0.0045
1868.00,0.0045
1855.00,0.0048
1842.00,0.0048
1829.00,0.0046
1816.00,0.0044
1803.00,0.0047
1790.00,0.0048
1777.00,0.0049
1764.00,0.0049
1751.00,0.0051
1738.00,0.0052
1725.00,0.0060
1712.00,0.0072
1699.00,0.0113
1686.00,0.0236
1673.00,0.0378
1660.00,0.0493
1647.00,0.0532
1634.00,0.0420
1621.00,0.0439
1608.00,0.0314
1595.00,0.0193
1582.00,0.0251
1569.00,0.0170
1556.00,0.0115
1543.00,0.0104
1530.00,0.0097
1517.00,0.0103
1504.00,0.0133
1491.00,0.0203
1478.00,0.0123
1465.00,0.0275
1452.00,0.0242
1439.00,0.0364
1426.00,0.0432
1413.00,0.0315
1400.00,0.0293
1387.00,0.0222
1374.00,0.0224
1361.00,0.0245
1348.00,0.0196
1335.00,0.0168
1322.00,0.0212
1309.00,0.0205
1296.00,0.0338
1283.00,0.0482
1270.00,0.0415
1257.00,0.0277
1244.00,0.0264
1231.00,0.0321
1218.00,0.0280
1205.00,0.0234
1192.00,0.0290
1179.00,0.0198
1166.00,0.0201
1153.00,0.0277
1140.00,0.0166
1127.00,0.0298
1114.00,0.0196
1101.00,0.0230
1088.00,0.0169
1075.00,0.0170
1062.00,0.0209
1049.00,0.0367
1036.00,0.0227
1023.00,0.0304
1010.00,0.0192
997.00,0.0214
984.00,0.0161
971.00,0.0149
958.00,0.0141
945.00,0.0134
932.00,0.0165
919.00,0.0157
906.00,0.0135
893.00,0.0159
880.00,0.0142
867.00,0.0237
854.00,0.0213
841.00,0.0222
828.00,0.0215
815.00,0.0286
802.00,0.0155
789.00,0.0151
776.00,0.0169
763.00,0.0178
750.00,0.0205
737.00,0.0266
724.00,0.0248
711.00,0.0240
698.00,0.0253
685.00,0.0273
672.00,0.0311
659.00,0.0344
646.00,0.0363
633.00,0.0341
620.00,0.0347
607.00,0.0348
594.00,0.0385
581.00,0.0412
568.00,0.0424
555.00,0.0421
542.00,0.0424
529.00,0.0427
516.00,0.0392
503.00,0.0394
490.00,0.0404
477.00,0.0402
464.00,0.0399
451.00,0.0385
438.00,0.0360
425.00,0.0330
412.00,0.0338
400.00,0.0327