File: FTIR/Olivia/2025_06_26_Polystyrene_Std_OAG_scan1.csv
Created as New Dataset,Sample 721 By YargerLab Date Tuesday, June 24 2025
cm-1,A
4000.00,0.0017
3987.00,0.0017
3974.00,0.0016
3961.00,0.0016
3948.00,0.0017
3935.00,0.0017
3922.00,0.0016
3909.00,0.0016
3896.00,0.0016
3883.00,0.0016
3870.00,0.0015
3857.00,0.0015
3844.00,0.0016
3831.00,0.0017
3818.00,0.0016
3805.00,0.0016
3792.00,0.0017
3779.00,0.0017
3766.00,0.0017
3753.00,0.0017
3740.00,0.0016
3727.00,0.0015
3714.00,0.0016
3701.00,0.0015
3688.00,0.0015
3675.00,0.0011
3662.00,0.0010
3649.00,0.0011
3636.00,0.0012
3623.00,0.0015
3610.00,0.0015
3597.00,0.0016
3584.00,0.0016
3571.00,0.0016
3558.00,0.0016
3545.00,0.0016
3532.00,0.0017
3519.00,0.0017
3506.00,0.0018
3493.00,0.0018
3480.00,0.0019
3467.00,0.0019
3454.00,0.0019
3441.00,0.0019
3428.00,0.0019
3415.00,0.0019
3402.00,0.0019
3389.00,0.0019
3376.00,0.0020
3363.00,0.0019
3350.00,0.0019
3337.00,0.0020
3324.00,0.0019
3311.00,0.0018
3298.00,0.0019
3285.00,0.0019
3272.00,0.0019
3259.00,0.0018
3246.00,0.0018
3233.00,0.0018
3220.00,0.0017
3207.00,0.0018
3194.00,0.0018
3181.00,0.0017
3168.00,0.0018
3155.00,0.0018
3142.00,0.0018
3129.00,0.0018
3116.00,0.0023
3103.00,0.0043
3090.00,0.0057
3077.00,0.0083
3064.00,0.0120
3051.00,0.0088
3038.00,0.0096
3025.00,0.0269
3012.00,0.0072
2999.00,0.0050
2986.00,0.0005
2973.00,0.0004
2960.00,0.0037
2947.00,0.0095
2934.00,0.0218
2921.00,0.0312
2908.00,0.0234
2895.00,0.0132
2882.00,0.0088
2869.00,0.0074
2856.00,0.0120
2843.00,0.0117
2830.00,0.0043
2817.00,0.0033
2804.00,0.0030
2791.00,0.0028
2778.00,0.0026
2765.00,0.0025
2752.00,0.0024
2739.00,0.0024
2726.00,0.0024
2713.00,0.0025
2700.00,0.0024
2687.00,0.0024
2674.00,0.0024
2661.00,0.0027
2648.00,0.0028
2635.00,0.0030
2622.00,0.0027
2609.00,0.0026
2596.00,0.0025
2583.00,0.0024
2570.00,0.0022
2557.00,0.0021
2544.00,0.0021
2531.00,0.0020
2518.00,0.0020
2505.00,0.0020
2492.00,0.0019
2479.00,0.0018
2466.00,0.0018
2453.00,0.0019
2440.00,0.0017
2427.00,0.0016
2414.00,0.0015
2401.00,0.0014
2388.00,0.0014
2375.00,0.0014
2362.00,0.0016
2349.00,0.0018
2336.00,0.0022
2323.00,0.0032
2310.00,0.0025
2297.00,0.0024
2284.00,0.0026
2271.00,0.0022
2258.00,0.0020
2245.00,0.0020
2232.00,0.0018
2219.00,0.0017
2206.00,0.0014
2193.00,0.0018
2180.00,0.0012
2167.00,0.0026
2154.00,-0.0011
2141.00,-0.0005
2128.00,-0.0002
2115.00,0.0013
2102.00,0.0012
2089.00,0.0011
2076.00,0.0014
2063.00,0.0010
2050.00,0.0017
2037.00,0.0010
2024.00,0.0003
2011.00,0.0007
1998.00,0.0008
1985.00,0.0021
1972.00,0.0010
1959.00,0.0020
1946.00,0.0038
1933.00,0.0025
1920.00,0.0014
1907.00,0.0012
1894.00,0.0020
1881.00,0.0035
1868.00,0.0040
1855.00,0.0022
1842.00,0.0015
1829.00,0.0020
1816.00,0.0030
1803.00,0.0048
1790.00,0.0031
1777.00,0.0026
1764.00,0.0029
1751.00,0.0048
1738.00,0.0053
1725.00,0.0042
1712.00,0.0036
1699.00,0.0033
1686.00,0.0036
1673.00,0.0039
1660.00,0.0038
1647.00,0.0032
1634.00,0.0031
1621.00,0.0037
1608.00,0.0109
1595.00,0.0143
1582.00,0.0114
1569.00,0.0036
1556.00,0.0036
1543.00,0.0049
1530.00,0.0039
1517.00,0.0036
1504.00,0.0064
1491.00,0.0630
1478.00,0.0079
1465.00,0.0079
1452.00,0.0709
1439.00,0.0256
1426.00,0.0078
1413.00,0.0055
1400.00,0.0046
1387.00,0.0082
1374.00,0.0142
1361.00,0.0137
1348.00,0.0124
1335.00,0.0113
1322.00,0.0121
1309.00,0.0125
1296.00,0.0102
1283.00,0.0092
1270.00,0.0069
1257.00,0.0061
1244.00,0.0064
1231.00,0.0064
1218.00,0.0070
1205.00,0.0088
1192.00,0.0108
1179.00,0.0134
1166.00,0.0074
1153.00,0.0132
1140.00,0.0051
1127.00,0.0053
1114.00,0.0077
1101.00,0.0078
1088.00,0.0095
1075.00,0.0161
1062.00,0.0160
1049.00,0.0108
1036.00,0.0157
1023.00,0.0273
1010.00,0.0145
997.00,0.0115
984.00,0.0131
971.00,0.0121
958.00,0.0113
945.00,0.0115
932.00,0.0086
919.00,0.0106
906.00,0.0255
893.00,0.0095
880.00,0.0068
867.00,0.0062
854.00,0.0068
841.00,0.0131
828.00,0.0059
815.00,0.0059
802.00,0.0067
789.00,0.0129
776.00,0.0326
763.00,0.0866
750.00,0.1123
737.00,0.0469
724.00,0.0131
711.00,0.0294
698.00,0.3230
685.00,0.1065
672.00,0.0473
659.00,0.0279
646.00,0.0177
633.00,0.0198
620.00,0.0239
607.00,0.0183
594.00,0.0206
581.00,0.0260
568.00,0.0441
555.00,0.0643
542.00,0.1021
529.00,0.0717
516.00,0.0356
503.00,0.0235
490.00,0.0178
477.00,0.0151
464.00,0.0129
451.00,0.0133
438.00,0.0122
425.00,0.0097
412.00,0.0112
400.00,0.0097