File: FTIR/Olivia/2025_08_15_1CBG_3PVP29_silicone_powder_scan3.csv
Created as New Dataset,Sample 123 By YargerLab Date Friday, August 15 2025
cm-1,A
4000.00,0.0050
3987.00,0.0050
3974.00,0.0049
3961.00,0.0050
3948.00,0.0049
3935.00,0.0049
3922.00,0.0049
3909.00,0.0050
3896.00,0.0049
3883.00,0.0049
3870.00,0.0049
3857.00,0.0051
3844.00,0.0049
3831.00,0.0049
3818.00,0.0050
3805.00,0.0051
3792.00,0.0048
3779.00,0.0049
3766.00,0.0049
3753.00,0.0051
3740.00,0.0048
3727.00,0.0048
3714.00,0.0049
3701.00,0.0048
3688.00,0.0052
3675.00,0.0057
3662.00,0.0060
3649.00,0.0065
3636.00,0.0074
3623.00,0.0084
3610.00,0.0096
3597.00,0.0108
3584.00,0.0124
3571.00,0.0140
3558.00,0.0157
3545.00,0.0174
3532.00,0.0188
3519.00,0.0200
3506.00,0.0214
3493.00,0.0224
3480.00,0.0236
3467.00,0.0245
3454.00,0.0252
3441.00,0.0260
3428.00,0.0267
3415.00,0.0272
3402.00,0.0278
3389.00,0.0284
3376.00,0.0288
3363.00,0.0292
3350.00,0.0294
3337.00,0.0298
3324.00,0.0303
3311.00,0.0305
3298.00,0.0309
3285.00,0.0314
3272.00,0.0309
3259.00,0.0310
3246.00,0.0306
3233.00,0.0301
3220.00,0.0296
3207.00,0.0290
3194.00,0.0285
3181.00,0.0275
3168.00,0.0265
3155.00,0.0252
3142.00,0.0241
3129.00,0.0232
3116.00,0.0222
3103.00,0.0209
3090.00,0.0197
3077.00,0.0186
3064.00,0.0177
3051.00,0.0171
3038.00,0.0164
3025.00,0.0162
3012.00,0.0165
2999.00,0.0195
2986.00,0.0261
2973.00,0.0317
2960.00,0.0399
2947.00,0.0399
2934.00,0.0432
2921.00,0.0474
2908.00,0.0416
2895.00,0.0370
2882.00,0.0348
2869.00,0.0347
2856.00,0.0350
2843.00,0.0265
2830.00,0.0199
2817.00,0.0156
2804.00,0.0136
2791.00,0.0125
2778.00,0.0119
2765.00,0.0114
2752.00,0.0114
2739.00,0.0115
2726.00,0.0116
2713.00,0.0114
2700.00,0.0111
2687.00,0.0109
2674.00,0.0106
2661.00,0.0106
2648.00,0.0103
2635.00,0.0099
2622.00,0.0095
2609.00,0.0092
2596.00,0.0091
2583.00,0.0090
2570.00,0.0088
2557.00,0.0086
2544.00,0.0084
2531.00,0.0082
2518.00,0.0080
2505.00,0.0078
2492.00,0.0077
2479.00,0.0076
2466.00,0.0075
2453.00,0.0075
2440.00,0.0074
2427.00,0.0073
2414.00,0.0073
2401.00,0.0072
2388.00,0.0072
2375.00,0.0066
2362.00,0.0065
2349.00,0.0063
2336.00,0.0070
2323.00,0.0077
2310.00,0.0071
2297.00,0.0075
2284.00,0.0078
2271.00,0.0075
2258.00,0.0074
2245.00,0.0073
2232.00,0.0073
2219.00,0.0074
2206.00,0.0073
2193.00,0.0075
2180.00,0.0069
2167.00,0.0078
2154.00,0.0056
2141.00,0.0059
2128.00,0.0061
2115.00,0.0073
2102.00,0.0069
2089.00,0.0067
2076.00,0.0068
2063.00,0.0065
2050.00,0.0069
2037.00,0.0060
2024.00,0.0056
2011.00,0.0058
1998.00,0.0057
1985.00,0.0066
1972.00,0.0051
1959.00,0.0052
1946.00,0.0057
1933.00,0.0058
1920.00,0.0060
1907.00,0.0062
1894.00,0.0061
1881.00,0.0061
1868.00,0.0063
1855.00,0.0061
1842.00,0.0061
1829.00,0.0062
1816.00,0.0060
1803.00,0.0063
1790.00,0.0062
1777.00,0.0065
1764.00,0.0068
1751.00,0.0073
1738.00,0.0080
1725.00,0.0102
1712.00,0.0153
1699.00,0.0369
1686.00,0.0951
1673.00,0.1510
1660.00,0.2054
1647.00,0.2116
1634.00,0.1287
1621.00,0.0851
1608.00,0.0607
1595.00,0.0617
1582.00,0.0412
1569.00,0.0284
1556.00,0.0236
1543.00,0.0226
1530.00,0.0216
1517.00,0.0219
1504.00,0.0285
1491.00,0.0463
1478.00,0.0280
1465.00,0.0732
1452.00,0.0705
1439.00,0.1143
1426.00,0.1487
1413.00,0.0883
1400.00,0.0534
1387.00,0.0552
1374.00,0.0677
1361.00,0.0499
1348.00,0.0425
1335.00,0.0408
1322.00,0.0580
1309.00,0.0548
1296.00,0.0944
1283.00,0.1456
1270.00,0.1318
1257.00,0.0823
1244.00,0.0578
1231.00,0.0726
1218.00,0.0733
1205.00,0.0573
1192.00,0.0492
1179.00,0.0495
1166.00,0.0652
1153.00,0.0519
1140.00,0.0399
1127.00,0.0381
1114.00,0.0426
1101.00,0.0472
1088.00,0.0503
1075.00,0.0500
1062.00,0.0463
1049.00,0.0812
1036.00,0.0619
1023.00,0.0565
1010.00,0.0439
997.00,0.0392
984.00,0.0349
971.00,0.0290
958.00,0.0244
945.00,0.0228
932.00,0.0292
919.00,0.0277
906.00,0.0308
893.00,0.0320
880.00,0.0309
867.00,0.0348
854.00,0.0481
841.00,0.0599
828.00,0.0617
815.00,0.0507
802.00,0.0487
789.00,0.0474
776.00,0.0468
763.00,0.0491
750.00,0.0603
737.00,0.0708
724.00,0.0619
711.00,0.0576
698.00,0.0599
685.00,0.0663
672.00,0.0746
659.00,0.0895
646.00,0.1015
633.00,0.0870
620.00,0.0793
607.00,0.0807
594.00,0.0865
581.00,0.1017
568.00,0.1056
555.00,0.0928
542.00,0.0861
529.00,0.0844
516.00,0.0819
503.00,0.0808
490.00,0.0822
477.00,0.0837
464.00,0.0840
451.00,0.0824
438.00,0.0775
425.00,0.0743
412.00,0.0742
400.00,0.0771