File: FTIR/Olivia/2025_08_06_Polystyrene_film_scan1.csv
Created as New Dataset,Sample 1081 By YargerLab Date Tuesday, August 05 2025
cm-1,A
4000.00,0.0002
3987.00,0.0001
3974.00,0.0001
3961.00,0.0002
3948.00,0.0002
3935.00,0.0002
3922.00,0.0002
3909.00,0.0002
3896.00,0.0003
3883.00,0.0003
3870.00,0.0004
3857.00,0.0004
3844.00,0.0003
3831.00,0.0004
3818.00,0.0006
3805.00,0.0005
3792.00,0.0002
3779.00,0.0002
3766.00,0.0004
3753.00,0.0007
3740.00,0.0005
3727.00,0.0003
3714.00,0.0003
3701.00,0.0001
3688.00,0.0005
3675.00,0.0005
3662.00,0.0003
3649.00,0.0007
3636.00,0.0003
3623.00,0.0004
3610.00,0.0005
3597.00,0.0004
3584.00,0.0005
3571.00,0.0006
3558.00,0.0006
3545.00,0.0007
3532.00,0.0008
3519.00,0.0009
3506.00,0.0009
3493.00,0.0010
3480.00,0.0012
3467.00,0.0012
3454.00,0.0013
3441.00,0.0013
3428.00,0.0014
3415.00,0.0014
3402.00,0.0015
3389.00,0.0014
3376.00,0.0014
3363.00,0.0014
3350.00,0.0013
3337.00,0.0013
3324.00,0.0013
3311.00,0.0013
3298.00,0.0012
3285.00,0.0012
3272.00,0.0012
3259.00,0.0012
3246.00,0.0011
3233.00,0.0010
3220.00,0.0010
3207.00,0.0010
3194.00,0.0009
3181.00,0.0008
3168.00,0.0008
3155.00,0.0008
3142.00,0.0007
3129.00,0.0006
3116.00,0.0008
3103.00,0.0017
3090.00,0.0021
3077.00,0.0034
3064.00,0.0047
3051.00,0.0036
3038.00,0.0037
3025.00,0.0110
3012.00,0.0031
2999.00,0.0035
2986.00,0.0026
2973.00,0.0035
2960.00,0.0039
2947.00,0.0053
2934.00,0.0101
2921.00,0.0142
2908.00,0.0108
2895.00,0.0066
2882.00,0.0047
2869.00,0.0037
2856.00,0.0052
2843.00,0.0049
2830.00,0.0015
2817.00,0.0010
2804.00,0.0009
2791.00,0.0007
2778.00,0.0007
2765.00,0.0006
2752.00,0.0005
2739.00,0.0005
2726.00,0.0006
2713.00,0.0006
2700.00,0.0005
2687.00,0.0006
2674.00,0.0005
2661.00,0.0009
2648.00,0.0011
2635.00,0.0011
2622.00,0.0010
2609.00,0.0009
2596.00,0.0007
2583.00,0.0007
2570.00,0.0006
2557.00,0.0005
2544.00,0.0003
2531.00,0.0004
2518.00,0.0004
2505.00,0.0003
2492.00,0.0002
2479.00,0.0002
2466.00,0.0002
2453.00,0.0003
2440.00,0.0001
2427.00,0.0001
2414.00,0.0000
2401.00,-0.0002
2388.00,-0.0002
2375.00,-0.0004
2362.00,-0.0003
2349.00,-0.0002
2336.00,0.0002
2323.00,0.0013
2310.00,0.0006
2297.00,0.0007
2284.00,0.0011
2271.00,0.0007
2258.00,0.0006
2245.00,0.0004
2232.00,0.0004
2219.00,0.0002
2206.00,0.0002
2193.00,0.0005
2180.00,-0.0002
2167.00,0.0011
2154.00,-0.0023
2141.00,-0.0016
2128.00,-0.0011
2115.00,-0.0000
2102.00,-0.0000
2089.00,-0.0001
2076.00,0.0001
2063.00,-0.0002
2050.00,0.0008
2037.00,0.0002
2024.00,-0.0008
2011.00,-0.0006
1998.00,-0.0005
1985.00,0.0004
1972.00,-0.0007
1959.00,-0.0006
1946.00,0.0006
1933.00,-0.0001
1920.00,-0.0005
1907.00,-0.0005
1894.00,0.0000
1881.00,0.0006
1868.00,0.0008
1855.00,0.0000
1842.00,-0.0002
1829.00,0.0000
1816.00,0.0004
1803.00,0.0013
1790.00,0.0007
1777.00,0.0006
1764.00,0.0008
1751.00,0.0016
1738.00,0.0018
1725.00,0.0015
1712.00,0.0013
1699.00,0.0014
1686.00,0.0026
1673.00,0.0041
1660.00,0.0046
1647.00,0.0029
1634.00,0.0018
1621.00,0.0019
1608.00,0.0047
1595.00,0.0064
1582.00,0.0051
1569.00,0.0014
1556.00,0.0012
1543.00,0.0021
1530.00,0.0014
1517.00,0.0013
1504.00,0.0029
1491.00,0.0296
1478.00,0.0039
1465.00,0.0049
1452.00,0.0321
1439.00,0.0128
1426.00,0.0043
1413.00,0.0031
1400.00,0.0031
1387.00,0.0051
1374.00,0.0078
1361.00,0.0070
1348.00,0.0061
1335.00,0.0055
1322.00,0.0061
1309.00,0.0062
1296.00,0.0060
1283.00,0.0051
1270.00,0.0041
1257.00,0.0037
1244.00,0.0037
1231.00,0.0036
1218.00,0.0036
1205.00,0.0045
1192.00,0.0057
1179.00,0.0073
1166.00,0.0051
1153.00,0.0082
1140.00,0.0038
1127.00,0.0040
1114.00,0.0048
1101.00,0.0049
1088.00,0.0059
1075.00,0.0093
1062.00,0.0093
1049.00,0.0061
1036.00,0.0080
1023.00,0.0137
1010.00,0.0075
997.00,0.0060
984.00,0.0068
971.00,0.0071
958.00,0.0075
945.00,0.0072
932.00,0.0050
919.00,0.0056
906.00,0.0130
893.00,0.0049
880.00,0.0035
867.00,0.0032
854.00,0.0036
841.00,0.0069
828.00,0.0033
815.00,0.0035
802.00,0.0038
789.00,0.0069
776.00,0.0170
763.00,0.0443
750.00,0.0568
737.00,0.0249
724.00,0.0071
711.00,0.0158
698.00,0.1563
685.00,0.0597
672.00,0.0268
659.00,0.0163
646.00,0.0101
633.00,0.0112
620.00,0.0135
607.00,0.0105
594.00,0.0119
581.00,0.0149
568.00,0.0250
555.00,0.0362
542.00,0.0568
529.00,0.0415
516.00,0.0213
503.00,0.0142
490.00,0.0116
477.00,0.0099
464.00,0.0083
451.00,0.0080
438.00,0.0066
425.00,0.0077
412.00,0.0061
400.00,0.0069