File: FTIR/Olivia/2025_08_15_1CBG_3PVP29_silicone_scan1.csv
Created as New Dataset,Sample 118 By YargerLab Date Friday, August 15 2025
cm-1,A
4000.00,0.0020
3987.00,0.0022
3974.00,0.0021
3961.00,0.0021
3948.00,0.0020
3935.00,0.0020
3922.00,0.0020
3909.00,0.0020
3896.00,0.0020
3883.00,0.0021
3870.00,0.0021
3857.00,0.0022
3844.00,0.0021
3831.00,0.0021
3818.00,0.0022
3805.00,0.0021
3792.00,0.0020
3779.00,0.0020
3766.00,0.0020
3753.00,0.0022
3740.00,0.0021
3727.00,0.0018
3714.00,0.0021
3701.00,0.0020
3688.00,0.0026
3675.00,0.0033
3662.00,0.0035
3649.00,0.0045
3636.00,0.0053
3623.00,0.0065
3610.00,0.0082
3597.00,0.0099
3584.00,0.0121
3571.00,0.0141
3558.00,0.0165
3545.00,0.0187
3532.00,0.0204
3519.00,0.0223
3506.00,0.0242
3493.00,0.0260
3480.00,0.0279
3467.00,0.0294
3454.00,0.0307
3441.00,0.0320
3428.00,0.0331
3415.00,0.0341
3402.00,0.0351
3389.00,0.0364
3376.00,0.0375
3363.00,0.0385
3350.00,0.0390
3337.00,0.0399
3324.00,0.0406
3311.00,0.0410
3298.00,0.0416
3285.00,0.0423
3272.00,0.0415
3259.00,0.0416
3246.00,0.0408
3233.00,0.0400
3220.00,0.0391
3207.00,0.0384
3194.00,0.0372
3181.00,0.0357
3168.00,0.0339
3155.00,0.0319
3142.00,0.0302
3129.00,0.0288
3116.00,0.0271
3103.00,0.0252
3090.00,0.0232
3077.00,0.0216
3064.00,0.0204
3051.00,0.0196
3038.00,0.0187
3025.00,0.0187
3012.00,0.0198
2999.00,0.0261
2986.00,0.0382
2973.00,0.0478
2960.00,0.0602
2947.00,0.0610
2934.00,0.0669
2921.00,0.0738
2908.00,0.0624
2895.00,0.0544
2882.00,0.0509
2869.00,0.0501
2856.00,0.0503
2843.00,0.0351
2830.00,0.0253
2817.00,0.0189
2804.00,0.0145
2791.00,0.0123
2778.00,0.0112
2765.00,0.0104
2752.00,0.0101
2739.00,0.0103
2726.00,0.0103
2713.00,0.0099
2700.00,0.0096
2687.00,0.0092
2674.00,0.0088
2661.00,0.0087
2648.00,0.0083
2635.00,0.0078
2622.00,0.0072
2609.00,0.0068
2596.00,0.0067
2583.00,0.0066
2570.00,0.0063
2557.00,0.0059
2544.00,0.0057
2531.00,0.0055
2518.00,0.0052
2505.00,0.0050
2492.00,0.0047
2479.00,0.0045
2466.00,0.0043
2453.00,0.0043
2440.00,0.0041
2427.00,0.0040
2414.00,0.0041
2401.00,0.0041
2388.00,0.0038
2375.00,0.0032
2362.00,0.0031
2349.00,0.0033
2336.00,0.0037
2323.00,0.0047
2310.00,0.0039
2297.00,0.0041
2284.00,0.0045
2271.00,0.0041
2258.00,0.0038
2245.00,0.0039
2232.00,0.0038
2219.00,0.0037
2206.00,0.0037
2193.00,0.0039
2180.00,0.0032
2167.00,0.0045
2154.00,0.0011
2141.00,0.0023
2128.00,0.0027
2115.00,0.0036
2102.00,0.0030
2089.00,0.0028
2076.00,0.0030
2063.00,0.0026
2050.00,0.0034
2037.00,0.0029
2024.00,0.0019
2011.00,0.0021
1998.00,0.0019
1985.00,0.0027
1972.00,0.0015
1959.00,0.0013
1946.00,0.0020
1933.00,0.0022
1920.00,0.0027
1907.00,0.0028
1894.00,0.0027
1881.00,0.0028
1868.00,0.0030
1855.00,0.0031
1842.00,0.0032
1829.00,0.0036
1816.00,0.0034
1803.00,0.0039
1790.00,0.0042
1777.00,0.0049
1764.00,0.0059
1751.00,0.0070
1738.00,0.0092
1725.00,0.0135
1712.00,0.0233
1699.00,0.0622
1686.00,0.1646
1673.00,0.2584
1660.00,0.3444
1647.00,0.3334
1634.00,0.1744
1621.00,0.1085
1608.00,0.0755
1595.00,0.0802
1582.00,0.0478
1569.00,0.0307
1556.00,0.0249
1543.00,0.0245
1530.00,0.0234
1517.00,0.0247
1504.00,0.0366
1491.00,0.0632
1478.00,0.0371
1465.00,0.1091
1452.00,0.1046
1439.00,0.1735
1426.00,0.2331
1413.00,0.1277
1400.00,0.0723
1387.00,0.0773
1374.00,0.0959
1361.00,0.0662
1348.00,0.0549
1335.00,0.0539
1322.00,0.0814
1309.00,0.0757
1296.00,0.1416
1283.00,0.2275
1270.00,0.1998
1257.00,0.1097
1244.00,0.0744
1231.00,0.0992
1218.00,0.0966
1205.00,0.0689
1192.00,0.0557
1179.00,0.0572
1166.00,0.0815
1153.00,0.0568
1140.00,0.0373
1127.00,0.0329
1114.00,0.0395
1101.00,0.0449
1088.00,0.0510
1075.00,0.0523
1062.00,0.0482
1049.00,0.1060
1036.00,0.0936
1023.00,0.0762
1010.00,0.0498
997.00,0.0446
984.00,0.0381
971.00,0.0295
958.00,0.0231
945.00,0.0209
932.00,0.0309
919.00,0.0279
906.00,0.0325
893.00,0.0345
880.00,0.0323
867.00,0.0377
854.00,0.0588
841.00,0.0766
828.00,0.0757
815.00,0.0538
802.00,0.0488
789.00,0.0505
776.00,0.0533
763.00,0.0582
750.00,0.0753
737.00,0.0902
724.00,0.0752
711.00,0.0682
698.00,0.0717
685.00,0.0817
672.00,0.0939
659.00,0.1165
646.00,0.1351
633.00,0.1092
620.00,0.0969
607.00,0.0985
594.00,0.1074
581.00,0.1308
568.00,0.1348
555.00,0.1124
542.00,0.1014
529.00,0.0978
516.00,0.0935
503.00,0.0904
490.00,0.0927
477.00,0.0941
464.00,0.0920
451.00,0.0904
438.00,0.0846
425.00,0.0816
412.00,0.0795
400.00,0.0817