File: FTIR/Olivia/2025_08_01_Polystyrene_Std_scan1.csv
Created as New Dataset,Sample 1009 By YargerLab Date Thursday, July 31 2025
cm-1,A
4000.00,0.0010
3987.00,0.0010
3974.00,0.0010
3961.00,0.0010
3948.00,0.0010
3935.00,0.0010
3922.00,0.0010
3909.00,0.0010
3896.00,0.0010
3883.00,0.0009
3870.00,0.0009
3857.00,0.0009
3844.00,0.0011
3831.00,0.0009
3818.00,0.0008
3805.00,0.0010
3792.00,0.0010
3779.00,0.0011
3766.00,0.0010
3753.00,0.0010
3740.00,0.0009
3727.00,0.0009
3714.00,0.0009
3701.00,0.0010
3688.00,0.0008
3675.00,0.0009
3662.00,0.0010
3649.00,0.0009
3636.00,0.0010
3623.00,0.0009
3610.00,0.0009
3597.00,0.0010
3584.00,0.0009
3571.00,0.0011
3558.00,0.0011
3545.00,0.0011
3532.00,0.0012
3519.00,0.0013
3506.00,0.0013
3493.00,0.0013
3480.00,0.0013
3467.00,0.0014
3454.00,0.0014
3441.00,0.0014
3428.00,0.0014
3415.00,0.0014
3402.00,0.0014
3389.00,0.0014
3376.00,0.0015
3363.00,0.0014
3350.00,0.0014
3337.00,0.0014
3324.00,0.0015
3311.00,0.0014
3298.00,0.0014
3285.00,0.0014
3272.00,0.0014
3259.00,0.0014
3246.00,0.0013
3233.00,0.0013
3220.00,0.0012
3207.00,0.0013
3194.00,0.0013
3181.00,0.0012
3168.00,0.0012
3155.00,0.0013
3142.00,0.0012
3129.00,0.0013
3116.00,0.0014
3103.00,0.0021
3090.00,0.0025
3077.00,0.0035
3064.00,0.0046
3051.00,0.0038
3038.00,0.0038
3025.00,0.0099
3012.00,0.0033
2999.00,0.0032
2986.00,0.0020
2973.00,0.0023
2960.00,0.0029
2947.00,0.0046
2934.00,0.0087
2921.00,0.0122
2908.00,0.0096
2895.00,0.0060
2882.00,0.0043
2869.00,0.0036
2856.00,0.0049
2843.00,0.0050
2830.00,0.0021
2817.00,0.0017
2804.00,0.0016
2791.00,0.0015
2778.00,0.0014
2765.00,0.0013
2752.00,0.0013
2739.00,0.0013
2726.00,0.0013
2713.00,0.0013
2700.00,0.0013
2687.00,0.0013
2674.00,0.0013
2661.00,0.0016
2648.00,0.0017
2635.00,0.0018
2622.00,0.0016
2609.00,0.0015
2596.00,0.0015
2583.00,0.0015
2570.00,0.0013
2557.00,0.0012
2544.00,0.0012
2531.00,0.0011
2518.00,0.0011
2505.00,0.0010
2492.00,0.0011
2479.00,0.0011
2466.00,0.0011
2453.00,0.0011
2440.00,0.0010
2427.00,0.0009
2414.00,0.0008
2401.00,0.0007
2388.00,0.0007
2375.00,0.0006
2362.00,0.0006
2349.00,0.0008
2336.00,0.0011
2323.00,0.0021
2310.00,0.0014
2297.00,0.0015
2284.00,0.0018
2271.00,0.0014
2258.00,0.0014
2245.00,0.0012
2232.00,0.0011
2219.00,0.0010
2206.00,0.0011
2193.00,0.0010
2180.00,0.0007
2167.00,0.0023
2154.00,-0.0013
2141.00,-0.0005
2128.00,-0.0003
2115.00,0.0007
2102.00,0.0007
2089.00,0.0006
2076.00,0.0009
2063.00,0.0008
2050.00,0.0015
2037.00,0.0012
2024.00,-0.0000
2011.00,0.0003
1998.00,0.0004
1985.00,0.0014
1972.00,-0.0002
1959.00,0.0005
1946.00,0.0012
1933.00,0.0007
1920.00,0.0005
1907.00,0.0005
1894.00,0.0009
1881.00,0.0013
1868.00,0.0016
1855.00,0.0010
1842.00,0.0007
1829.00,0.0009
1816.00,0.0012
1803.00,0.0021
1790.00,0.0015
1777.00,0.0013
1764.00,0.0015
1751.00,0.0022
1738.00,0.0026
1725.00,0.0022
1712.00,0.0020
1699.00,0.0022
1686.00,0.0030
1673.00,0.0036
1660.00,0.0037
1647.00,0.0030
1634.00,0.0023
1621.00,0.0025
1608.00,0.0048
1595.00,0.0063
1582.00,0.0051
1569.00,0.0020
1556.00,0.0020
1543.00,0.0026
1530.00,0.0021
1517.00,0.0022
1504.00,0.0032
1491.00,0.0262
1478.00,0.0042
1465.00,0.0047
1452.00,0.0280
1439.00,0.0119
1426.00,0.0047
1413.00,0.0035
1400.00,0.0035
1387.00,0.0048
1374.00,0.0071
1361.00,0.0066
1348.00,0.0060
1335.00,0.0055
1322.00,0.0059
1309.00,0.0060
1296.00,0.0055
1283.00,0.0052
1270.00,0.0043
1257.00,0.0038
1244.00,0.0040
1231.00,0.0039
1218.00,0.0040
1205.00,0.0047
1192.00,0.0057
1179.00,0.0071
1166.00,0.0048
1153.00,0.0073
1140.00,0.0037
1127.00,0.0037
1114.00,0.0045
1101.00,0.0048
1088.00,0.0055
1075.00,0.0084
1062.00,0.0086
1049.00,0.0061
1036.00,0.0078
1023.00,0.0129
1010.00,0.0074
997.00,0.0062
984.00,0.0068
971.00,0.0068
958.00,0.0066
945.00,0.0063
932.00,0.0051
919.00,0.0057
906.00,0.0123
893.00,0.0052
880.00,0.0042
867.00,0.0037
854.00,0.0041
841.00,0.0069
828.00,0.0038
815.00,0.0038
802.00,0.0040
789.00,0.0068
776.00,0.0155
763.00,0.0391
750.00,0.0515
737.00,0.0230
724.00,0.0071
711.00,0.0141
698.00,0.1372
685.00,0.0570
672.00,0.0258
659.00,0.0160
646.00,0.0103
633.00,0.0111
620.00,0.0130
607.00,0.0103
594.00,0.0112
581.00,0.0144
568.00,0.0231
555.00,0.0331
542.00,0.0522
529.00,0.0391
516.00,0.0208
503.00,0.0142
490.00,0.0112
477.00,0.0100
464.00,0.0096
451.00,0.0089
438.00,0.0092
425.00,0.0073
412.00,0.0086
400.00,0.0078