File: FTIR/Olivia/2025_06_26_Polystyrene_Std_OAG_scan2.csv
Created as New Dataset,Sample 722 By YargerLab Date Thursday, June 26 2025
cm-1,A
4000.00,0.0025
3987.00,0.0025
3974.00,0.0025
3961.00,0.0024
3948.00,0.0024
3935.00,0.0025
3922.00,0.0024
3909.00,0.0025
3896.00,0.0023
3883.00,0.0024
3870.00,0.0023
3857.00,0.0023
3844.00,0.0024
3831.00,0.0024
3818.00,0.0024
3805.00,0.0023
3792.00,0.0024
3779.00,0.0025
3766.00,0.0024
3753.00,0.0023
3740.00,0.0023
3727.00,0.0023
3714.00,0.0023
3701.00,0.0024
3688.00,0.0022
3675.00,0.0017
3662.00,0.0017
3649.00,0.0018
3636.00,0.0019
3623.00,0.0022
3610.00,0.0022
3597.00,0.0024
3584.00,0.0024
3571.00,0.0023
3558.00,0.0024
3545.00,0.0024
3532.00,0.0025
3519.00,0.0026
3506.00,0.0026
3493.00,0.0027
3480.00,0.0027
3467.00,0.0028
3454.00,0.0028
3441.00,0.0028
3428.00,0.0028
3415.00,0.0028
3402.00,0.0029
3389.00,0.0029
3376.00,0.0029
3363.00,0.0029
3350.00,0.0029
3337.00,0.0029
3324.00,0.0028
3311.00,0.0028
3298.00,0.0029
3285.00,0.0028
3272.00,0.0029
3259.00,0.0028
3246.00,0.0028
3233.00,0.0028
3220.00,0.0026
3207.00,0.0028
3194.00,0.0028
3181.00,0.0027
3168.00,0.0029
3155.00,0.0028
3142.00,0.0028
3129.00,0.0028
3116.00,0.0033
3103.00,0.0057
3090.00,0.0074
3077.00,0.0104
3064.00,0.0149
3051.00,0.0110
3038.00,0.0120
3025.00,0.0325
3012.00,0.0091
2999.00,0.0066
2986.00,0.0014
2973.00,0.0012
2960.00,0.0053
2947.00,0.0122
2934.00,0.0272
2921.00,0.0386
2908.00,0.0289
2895.00,0.0166
2882.00,0.0113
2869.00,0.0096
2856.00,0.0152
2843.00,0.0147
2830.00,0.0059
2817.00,0.0046
2804.00,0.0043
2791.00,0.0039
2778.00,0.0038
2765.00,0.0036
2752.00,0.0035
2739.00,0.0035
2726.00,0.0035
2713.00,0.0035
2700.00,0.0035
2687.00,0.0034
2674.00,0.0035
2661.00,0.0037
2648.00,0.0039
2635.00,0.0040
2622.00,0.0037
2609.00,0.0036
2596.00,0.0035
2583.00,0.0034
2570.00,0.0032
2557.00,0.0031
2544.00,0.0030
2531.00,0.0029
2518.00,0.0029
2505.00,0.0030
2492.00,0.0029
2479.00,0.0028
2466.00,0.0027
2453.00,0.0028
2440.00,0.0026
2427.00,0.0024
2414.00,0.0025
2401.00,0.0023
2388.00,0.0023
2375.00,0.0023
2362.00,0.0026
2349.00,0.0028
2336.00,0.0033
2323.00,0.0041
2310.00,0.0036
2297.00,0.0034
2284.00,0.0035
2271.00,0.0031
2258.00,0.0029
2245.00,0.0028
2232.00,0.0026
2219.00,0.0025
2206.00,0.0024
2193.00,0.0026
2180.00,0.0018
2167.00,0.0034
2154.00,-0.0003
2141.00,0.0003
2128.00,0.0007
2115.00,0.0019
2102.00,0.0019
2089.00,0.0019
2076.00,0.0020
2063.00,0.0018
2050.00,0.0028
2037.00,0.0020
2024.00,0.0010
2011.00,0.0013
1998.00,0.0017
1985.00,0.0028
1972.00,0.0016
1959.00,0.0030
1946.00,0.0054
1933.00,0.0035
1920.00,0.0024
1907.00,0.0021
1894.00,0.0030
1881.00,0.0047
1868.00,0.0053
1855.00,0.0032
1842.00,0.0024
1829.00,0.0029
1816.00,0.0042
1803.00,0.0061
1790.00,0.0041
1777.00,0.0036
1764.00,0.0039
1751.00,0.0063
1738.00,0.0071
1725.00,0.0059
1712.00,0.0049
1699.00,0.0046
1686.00,0.0049
1673.00,0.0054
1660.00,0.0052
1647.00,0.0045
1634.00,0.0044
1621.00,0.0051
1608.00,0.0137
1595.00,0.0176
1582.00,0.0141
1569.00,0.0050
1556.00,0.0049
1543.00,0.0064
1530.00,0.0051
1517.00,0.0047
1504.00,0.0079
1491.00,0.0735
1478.00,0.0098
1465.00,0.0099
1452.00,0.0836
1439.00,0.0303
1426.00,0.0099
1413.00,0.0073
1400.00,0.0063
1387.00,0.0103
1374.00,0.0174
1361.00,0.0173
1348.00,0.0155
1335.00,0.0136
1322.00,0.0145
1309.00,0.0150
1296.00,0.0122
1283.00,0.0111
1270.00,0.0087
1257.00,0.0078
1244.00,0.0080
1231.00,0.0080
1218.00,0.0085
1205.00,0.0107
1192.00,0.0129
1179.00,0.0158
1166.00,0.0090
1153.00,0.0156
1140.00,0.0064
1127.00,0.0065
1114.00,0.0095
1101.00,0.0096
1088.00,0.0114
1075.00,0.0186
1062.00,0.0185
1049.00,0.0128
1036.00,0.0183
1023.00,0.0313
1010.00,0.0167
997.00,0.0132
984.00,0.0150
971.00,0.0137
958.00,0.0127
945.00,0.0129
932.00,0.0097
919.00,0.0121
906.00,0.0285
893.00,0.0108
880.00,0.0079
867.00,0.0071
854.00,0.0078
841.00,0.0148
828.00,0.0070
815.00,0.0070
802.00,0.0079
789.00,0.0147
776.00,0.0365
763.00,0.0964
750.00,0.1249
737.00,0.0518
724.00,0.0147
711.00,0.0326
698.00,0.3548
685.00,0.1147
672.00,0.0511
659.00,0.0305
646.00,0.0196
633.00,0.0218
620.00,0.0262
607.00,0.0201
594.00,0.0223
581.00,0.0284
568.00,0.0484
555.00,0.0698
542.00,0.1107
529.00,0.0771
516.00,0.0377
503.00,0.0250
490.00,0.0190
477.00,0.0159
464.00,0.0140
451.00,0.0145
438.00,0.0138
425.00,0.0097
412.00,0.0122
400.00,0.0114