File: FTIR/Olivia/2025_08_06_1CBN_3PVP29_MP_Powder_Scan3.csv
Created as New Dataset,Sample 001 By YargerLab Date Wednesday, August 06 2025
cm-1,A
4000.00,0.0005
3987.00,0.0005
3974.00,0.0005
3961.00,0.0005
3948.00,0.0006
3935.00,0.0006
3922.00,0.0006
3909.00,0.0006
3896.00,0.0008
3883.00,0.0008
3870.00,0.0009
3857.00,0.0009
3844.00,0.0007
3831.00,0.0009
3818.00,0.0010
3805.00,0.0009
3792.00,0.0006
3779.00,0.0006
3766.00,0.0007
3753.00,0.0011
3740.00,0.0011
3727.00,0.0007
3714.00,0.0007
3701.00,0.0005
3688.00,0.0008
3675.00,0.0010
3662.00,0.0005
3649.00,0.0011
3636.00,0.0007
3623.00,0.0010
3610.00,0.0013
3597.00,0.0013
3584.00,0.0016
3571.00,0.0018
3558.00,0.0020
3545.00,0.0024
3532.00,0.0026
3519.00,0.0029
3506.00,0.0031
3493.00,0.0032
3480.00,0.0034
3467.00,0.0036
3454.00,0.0039
3441.00,0.0041
3428.00,0.0043
3415.00,0.0047
3402.00,0.0052
3389.00,0.0053
3376.00,0.0048
3363.00,0.0043
3350.00,0.0039
3337.00,0.0036
3324.00,0.0032
3311.00,0.0033
3298.00,0.0033
3285.00,0.0033
3272.00,0.0035
3259.00,0.0036
3246.00,0.0037
3233.00,0.0038
3220.00,0.0039
3207.00,0.0038
3194.00,0.0035
3181.00,0.0032
3168.00,0.0028
3155.00,0.0025
3142.00,0.0022
3129.00,0.0019
3116.00,0.0017
3103.00,0.0015
3090.00,0.0015
3077.00,0.0014
3064.00,0.0013
3051.00,0.0013
3038.00,0.0013
3025.00,0.0012
3012.00,0.0013
2999.00,0.0021
2986.00,0.0024
2973.00,0.0033
2960.00,0.0044
2947.00,0.0044
2934.00,0.0059
2921.00,0.0064
2908.00,0.0047
2895.00,0.0039
2882.00,0.0036
2869.00,0.0038
2856.00,0.0051
2843.00,0.0033
2830.00,0.0021
2817.00,0.0016
2804.00,0.0014
2791.00,0.0013
2778.00,0.0012
2765.00,0.0011
2752.00,0.0012
2739.00,0.0012
2726.00,0.0012
2713.00,0.0012
2700.00,0.0012
2687.00,0.0011
2674.00,0.0011
2661.00,0.0014
2648.00,0.0016
2635.00,0.0016
2622.00,0.0014
2609.00,0.0013
2596.00,0.0012
2583.00,0.0012
2570.00,0.0010
2557.00,0.0010
2544.00,0.0010
2531.00,0.0009
2518.00,0.0009
2505.00,0.0007
2492.00,0.0008
2479.00,0.0007
2466.00,0.0007
2453.00,0.0009
2440.00,0.0007
2427.00,0.0006
2414.00,0.0006
2401.00,0.0004
2388.00,0.0004
2375.00,-0.0001
2362.00,-0.0001
2349.00,0.0001
2336.00,0.0005
2323.00,0.0015
2310.00,0.0007
2297.00,0.0011
2284.00,0.0017
2271.00,0.0015
2258.00,0.0011
2245.00,0.0010
2232.00,0.0010
2219.00,0.0011
2206.00,0.0011
2193.00,0.0011
2180.00,0.0010
2167.00,0.0020
2154.00,-0.0011
2141.00,-0.0007
2128.00,-0.0004
2115.00,0.0008
2102.00,0.0006
2089.00,0.0006
2076.00,0.0010
2063.00,0.0006
2050.00,0.0014
2037.00,0.0012
2024.00,-0.0001
2011.00,-0.0001
1998.00,0.0003
1985.00,0.0012
1972.00,-0.0003
1959.00,-0.0008
1946.00,-0.0002
1933.00,-0.0002
1920.00,0.0001
1907.00,0.0004
1894.00,0.0002
1881.00,0.0001
1868.00,0.0002
1855.00,0.0002
1842.00,0.0003
1829.00,0.0004
1816.00,0.0002
1803.00,0.0005
1790.00,0.0005
1777.00,0.0005
1764.00,0.0007
1751.00,0.0007
1738.00,0.0010
1725.00,0.0013
1712.00,0.0019
1699.00,0.0044
1686.00,0.0117
1673.00,0.0178
1660.00,0.0225
1647.00,0.0268
1634.00,0.0202
1621.00,0.0172
1608.00,0.0121
1595.00,0.0066
1582.00,0.0079
1569.00,0.0055
1556.00,0.0030
1543.00,0.0026
1530.00,0.0023
1517.00,0.0025
1504.00,0.0041
1491.00,0.0074
1478.00,0.0039
1465.00,0.0108
1452.00,0.0091
1439.00,0.0150
1426.00,0.0180
1413.00,0.0116
1400.00,0.0094
1387.00,0.0075
1374.00,0.0078
1361.00,0.0082
1348.00,0.0069
1335.00,0.0054
1322.00,0.0075
1309.00,0.0075
1296.00,0.0140
1283.00,0.0216
1270.00,0.0185
1257.00,0.0110
1244.00,0.0106
1231.00,0.0124
1218.00,0.0112
1205.00,0.0092
1192.00,0.0105
1179.00,0.0071
1166.00,0.0063
1153.00,0.0084
1140.00,0.0046
1127.00,0.0087
1114.00,0.0060
1101.00,0.0075
1088.00,0.0049
1075.00,0.0052
1062.00,0.0059
1049.00,0.0133
1036.00,0.0087
1023.00,0.0128
1010.00,0.0077
997.00,0.0079
984.00,0.0054
971.00,0.0046
958.00,0.0034
945.00,0.0017
932.00,0.0050
919.00,0.0049
906.00,0.0046
893.00,0.0051
880.00,0.0043
867.00,0.0081
854.00,0.0078
841.00,0.0080
828.00,0.0070
815.00,0.0098
802.00,0.0051
789.00,0.0051
776.00,0.0060
763.00,0.0067
750.00,0.0076
737.00,0.0105
724.00,0.0100
711.00,0.0099
698.00,0.0104
685.00,0.0109
672.00,0.0136
659.00,0.0149
646.00,0.0156
633.00,0.0144
620.00,0.0150
607.00,0.0151
594.00,0.0173
581.00,0.0175
568.00,0.0185
555.00,0.0190
542.00,0.0195
529.00,0.0188
516.00,0.0172
503.00,0.0173
490.00,0.0170
477.00,0.0170
464.00,0.0171
451.00,0.0175
438.00,0.0155
425.00,0.0143
412.00,0.0149
400.00,0.0129