File: FTIR/Olivia/2025_06_06_Crystalline_Felodipine_Scan3.csv
Created as New Dataset,Sample 625 By YargerLab Date Friday, June 06 2025
cm-1,A
4000.00,0.0091
3987.00,0.0092
3974.00,0.0092
3961.00,0.0092
3948.00,0.0091
3935.00,0.0092
3922.00,0.0093
3909.00,0.0092
3896.00,0.0088
3883.00,0.0087
3870.00,0.0087
3857.00,0.0087
3844.00,0.0086
3831.00,0.0086
3818.00,0.0085
3805.00,0.0087
3792.00,0.0087
3779.00,0.0087
3766.00,0.0086
3753.00,0.0085
3740.00,0.0084
3727.00,0.0084
3714.00,0.0083
3701.00,0.0083
3688.00,0.0081
3675.00,0.0074
3662.00,0.0071
3649.00,0.0070
3636.00,0.0074
3623.00,0.0077
3610.00,0.0077
3597.00,0.0078
3584.00,0.0078
3571.00,0.0079
3558.00,0.0080
3545.00,0.0079
3532.00,0.0079
3519.00,0.0078
3506.00,0.0078
3493.00,0.0078
3480.00,0.0077
3467.00,0.0076
3454.00,0.0076
3441.00,0.0077
3428.00,0.0080
3415.00,0.0089
3402.00,0.0115
3389.00,0.0200
3376.00,0.0527
3363.00,0.0620
3350.00,0.0376
3337.00,0.0256
3324.00,0.0206
3311.00,0.0184
3298.00,0.0166
3285.00,0.0145
3272.00,0.0129
3259.00,0.0124
3246.00,0.0124
3233.00,0.0125
3220.00,0.0117
3207.00,0.0108
3194.00,0.0102
3181.00,0.0100
3168.00,0.0098
3155.00,0.0098
3142.00,0.0101
3129.00,0.0103
3116.00,0.0111
3103.00,0.0124
3090.00,0.0123
3077.00,0.0123
3064.00,0.0119
3051.00,0.0112
3038.00,0.0105
3025.00,0.0112
3012.00,0.0120
2999.00,0.0133
2986.00,0.0164
2973.00,0.0111
2960.00,0.0155
2947.00,0.0223
2934.00,0.0183
2921.00,0.0130
2908.00,0.0122
2895.00,0.0118
2882.00,0.0111
2869.00,0.0108
2856.00,0.0104
2843.00,0.0115
2830.00,0.0113
2817.00,0.0109
2804.00,0.0114
2791.00,0.0104
2778.00,0.0095
2765.00,0.0093
2752.00,0.0092
2739.00,0.0089
2726.00,0.0087
2713.00,0.0085
2700.00,0.0087
2687.00,0.0086
2674.00,0.0083
2661.00,0.0087
2648.00,0.0088
2635.00,0.0089
2622.00,0.0090
2609.00,0.0091
2596.00,0.0090
2583.00,0.0085
2570.00,0.0083
2557.00,0.0083
2544.00,0.0080
2531.00,0.0078
2518.00,0.0081
2505.00,0.0081
2492.00,0.0080
2479.00,0.0081
2466.00,0.0080
2453.00,0.0079
2440.00,0.0076
2427.00,0.0076
2414.00,0.0075
2401.00,0.0070
2388.00,0.0070
2375.00,0.0067
2362.00,0.0067
2349.00,0.0067
2336.00,0.0069
2323.00,0.0080
2310.00,0.0069
2297.00,0.0073
2284.00,0.0079
2271.00,0.0072
2258.00,0.0070
2245.00,0.0066
2232.00,0.0063
2219.00,0.0062
2206.00,0.0056
2193.00,0.0057
2180.00,0.0053
2167.00,0.0070
2154.00,0.0039
2141.00,0.0042
2128.00,0.0045
2115.00,0.0055
2102.00,0.0059
2089.00,0.0057
2076.00,0.0059
2063.00,0.0056
2050.00,0.0059
2037.00,0.0046
2024.00,0.0041
2011.00,0.0048
1998.00,0.0048
1985.00,0.0056
1972.00,0.0037
1959.00,0.0035
1946.00,0.0040
1933.00,0.0045
1920.00,0.0057
1907.00,0.0054
1894.00,0.0047
1881.00,0.0049
1868.00,0.0049
1855.00,0.0058
1842.00,0.0048
1829.00,0.0045
1816.00,0.0043
1803.00,0.0049
1790.00,0.0057
1777.00,0.0055
1764.00,0.0062
1751.00,0.0074
1738.00,0.0085
1725.00,0.0112
1712.00,0.0285
1699.00,0.1515
1686.00,0.1795
1673.00,0.0690
1660.00,0.0414
1647.00,0.0730
1634.00,0.0600
1621.00,0.1084
1608.00,0.0657
1595.00,0.0358
1582.00,0.0285
1569.00,0.0180
1556.00,0.0161
1543.00,0.0140
1530.00,0.0167
1517.00,0.0276
1504.00,0.0926
1491.00,0.1794
1478.00,0.0942
1465.00,0.0678
1452.00,0.0632
1439.00,0.0705
1426.00,0.0792
1413.00,0.0866
1400.00,0.0390
1387.00,0.0538
1374.00,0.0526
1361.00,0.0457
1348.00,0.0176
1335.00,0.0172
1322.00,0.0246
1309.00,0.0923
1296.00,0.0536
1283.00,0.1257
1270.00,0.1497
1257.00,0.0542
1244.00,0.0360
1231.00,0.0306
1218.00,0.0576
1205.00,0.1916
1192.00,0.1367
1179.00,0.0944
1166.00,0.0619
1153.00,0.0509
1140.00,0.1288
1127.00,0.0883
1114.00,0.1735
1101.00,0.2043
1088.00,0.1731
1075.00,0.0894
1062.00,0.1193
1049.00,0.0962
1036.00,0.1104
1023.00,0.1453
1010.00,0.0915
997.00,0.0639
984.00,0.0565
971.00,0.0569
958.00,0.0468
945.00,0.0348
932.00,0.0298
919.00,0.0272
906.00,0.0255
893.00,0.0240
880.00,0.0246
867.00,0.0478
854.00,0.0559
841.00,0.0262
828.00,0.0253
815.00,0.0256
802.00,0.1222
789.00,0.0400
776.00,0.0455
763.00,0.0462
750.00,0.0364
737.00,0.0889
724.00,0.1567
711.00,0.0406
698.00,0.0270
685.00,0.0323
672.00,0.0689
659.00,0.0328
646.00,0.0298
633.00,0.0385
620.00,0.0704
607.00,0.0585
594.00,0.0557
581.00,0.0559
568.00,0.1042
555.00,0.0957
542.00,0.0727
529.00,0.0474
516.00,0.0333
503.00,0.0278
490.00,0.0242
477.00,0.0241
464.00,0.0489
451.00,0.0313
438.00,0.0218
425.00,0.0259
412.00,0.0353
400.00,0.0348