File: FTIR/Olivia/2025_08_04_1CBN_3PVP10kDa_MortPest_powder_scan3.csv
Created as New Dataset,Sample 1034 By YargerLab Date Monday, August 04 2025
cm-1,A
4000.00,0.0046
3987.00,0.0046
3974.00,0.0046
3961.00,0.0046
3948.00,0.0045
3935.00,0.0046
3922.00,0.0046
3909.00,0.0046
3896.00,0.0044
3883.00,0.0044
3870.00,0.0044
3857.00,0.0046
3844.00,0.0044
3831.00,0.0044
3818.00,0.0043
3805.00,0.0045
3792.00,0.0045
3779.00,0.0044
3766.00,0.0045
3753.00,0.0045
3740.00,0.0041
3727.00,0.0042
3714.00,0.0043
3701.00,0.0043
3688.00,0.0043
3675.00,0.0043
3662.00,0.0045
3649.00,0.0044
3636.00,0.0047
3623.00,0.0048
3610.00,0.0051
3597.00,0.0056
3584.00,0.0059
3571.00,0.0066
3558.00,0.0072
3545.00,0.0077
3532.00,0.0083
3519.00,0.0087
3506.00,0.0091
3493.00,0.0096
3480.00,0.0101
3467.00,0.0108
3454.00,0.0114
3441.00,0.0122
3428.00,0.0133
3415.00,0.0144
3402.00,0.0151
3389.00,0.0147
3376.00,0.0139
3363.00,0.0130
3350.00,0.0124
3337.00,0.0121
3324.00,0.0120
3311.00,0.0121
3298.00,0.0123
3285.00,0.0127
3272.00,0.0130
3259.00,0.0133
3246.00,0.0135
3233.00,0.0134
3220.00,0.0131
3207.00,0.0125
3194.00,0.0117
3181.00,0.0107
3168.00,0.0098
3155.00,0.0090
3142.00,0.0083
3129.00,0.0077
3116.00,0.0074
3103.00,0.0069
3090.00,0.0068
3077.00,0.0068
3064.00,0.0065
3051.00,0.0066
3038.00,0.0066
3025.00,0.0066
3012.00,0.0065
2999.00,0.0081
2986.00,0.0110
2973.00,0.0147
2960.00,0.0181
2947.00,0.0156
2934.00,0.0206
2921.00,0.0218
2908.00,0.0159
2895.00,0.0133
2882.00,0.0125
2869.00,0.0141
2856.00,0.0173
2843.00,0.0113
2830.00,0.0083
2817.00,0.0071
2804.00,0.0066
2791.00,0.0063
2778.00,0.0060
2765.00,0.0059
2752.00,0.0059
2739.00,0.0060
2726.00,0.0060
2713.00,0.0059
2700.00,0.0059
2687.00,0.0057
2674.00,0.0057
2661.00,0.0060
2648.00,0.0062
2635.00,0.0060
2622.00,0.0058
2609.00,0.0057
2596.00,0.0057
2583.00,0.0057
2570.00,0.0055
2557.00,0.0054
2544.00,0.0053
2531.00,0.0053
2518.00,0.0051
2505.00,0.0051
2492.00,0.0049
2479.00,0.0049
2466.00,0.0047
2453.00,0.0050
2440.00,0.0048
2427.00,0.0047
2414.00,0.0047
2401.00,0.0045
2388.00,0.0045
2375.00,0.0042
2362.00,0.0043
2349.00,0.0043
2336.00,0.0046
2323.00,0.0056
2310.00,0.0047
2297.00,0.0051
2284.00,0.0057
2271.00,0.0051
2258.00,0.0051
2245.00,0.0048
2232.00,0.0048
2219.00,0.0048
2206.00,0.0047
2193.00,0.0048
2180.00,0.0045
2167.00,0.0055
2154.00,0.0025
2141.00,0.0032
2128.00,0.0033
2115.00,0.0044
2102.00,0.0043
2089.00,0.0044
2076.00,0.0044
2063.00,0.0042
2050.00,0.0053
2037.00,0.0043
2024.00,0.0038
2011.00,0.0038
1998.00,0.0036
1985.00,0.0043
1972.00,0.0032
1959.00,0.0027
1946.00,0.0032
1933.00,0.0033
1920.00,0.0036
1907.00,0.0040
1894.00,0.0039
1881.00,0.0037
1868.00,0.0038
1855.00,0.0037
1842.00,0.0038
1829.00,0.0036
1816.00,0.0035
1803.00,0.0038
1790.00,0.0037
1777.00,0.0038
1764.00,0.0039
1751.00,0.0039
1738.00,0.0040
1725.00,0.0046
1712.00,0.0057
1699.00,0.0099
1686.00,0.0228
1673.00,0.0347
1660.00,0.0422
1647.00,0.0418
1634.00,0.0308
1621.00,0.0360
1608.00,0.0253
1595.00,0.0153
1582.00,0.0223
1569.00,0.0144
1556.00,0.0092
1543.00,0.0079
1530.00,0.0077
1517.00,0.0085
1504.00,0.0114
1491.00,0.0170
1478.00,0.0105
1465.00,0.0234
1452.00,0.0210
1439.00,0.0306
1426.00,0.0378
1413.00,0.0279
1400.00,0.0277
1387.00,0.0204
1374.00,0.0199
1361.00,0.0230
1348.00,0.0176
1335.00,0.0145
1322.00,0.0176
1309.00,0.0175
1296.00,0.0279
1283.00,0.0407
1270.00,0.0344
1257.00,0.0233
1244.00,0.0230
1231.00,0.0281
1218.00,0.0242
1205.00,0.0202
1192.00,0.0256
1179.00,0.0167
1166.00,0.0172
1153.00,0.0258
1140.00,0.0144
1127.00,0.0271
1114.00,0.0163
1101.00,0.0197
1088.00,0.0134
1075.00,0.0135
1062.00,0.0182
1049.00,0.0334
1036.00,0.0193
1023.00,0.0259
1010.00,0.0154
997.00,0.0172
984.00,0.0126
971.00,0.0118
958.00,0.0113
945.00,0.0107
932.00,0.0135
919.00,0.0128
906.00,0.0108
893.00,0.0129
880.00,0.0115
867.00,0.0204
854.00,0.0178
841.00,0.0183
828.00,0.0173
815.00,0.0240
802.00,0.0111
789.00,0.0107
776.00,0.0123
763.00,0.0125
750.00,0.0143
737.00,0.0200
724.00,0.0176
711.00,0.0167
698.00,0.0177
685.00,0.0192
672.00,0.0225
659.00,0.0251
646.00,0.0258
633.00,0.0236
620.00,0.0244
607.00,0.0244
594.00,0.0274
581.00,0.0296
568.00,0.0298
555.00,0.0297
542.00,0.0297
529.00,0.0299
516.00,0.0267
503.00,0.0271
490.00,0.0274
477.00,0.0270
464.00,0.0269
451.00,0.0261
438.00,0.0248
425.00,0.0234
412.00,0.0234
400.00,0.0195