File: FTIR/Olivia/2025_08_01_1CBN_3PVP10_drybatchpowder_scan2.csv
Created as New Dataset,Sample 1013 By YargerLab Date Friday, August 01 2025
cm-1,A
4000.00,0.0122
3987.00,0.0122
3974.00,0.0122
3961.00,0.0121
3948.00,0.0121
3935.00,0.0121
3922.00,0.0122
3909.00,0.0121
3896.00,0.0121
3883.00,0.0121
3870.00,0.0121
3857.00,0.0121
3844.00,0.0121
3831.00,0.0120
3818.00,0.0121
3805.00,0.0120
3792.00,0.0120
3779.00,0.0120
3766.00,0.0120
3753.00,0.0120
3740.00,0.0121
3727.00,0.0119
3714.00,0.0119
3701.00,0.0118
3688.00,0.0120
3675.00,0.0125
3662.00,0.0127
3649.00,0.0135
3636.00,0.0142
3623.00,0.0153
3610.00,0.0167
3597.00,0.0181
3584.00,0.0199
3571.00,0.0219
3558.00,0.0241
3545.00,0.0263
3532.00,0.0281
3519.00,0.0297
3506.00,0.0310
3493.00,0.0324
3480.00,0.0337
3467.00,0.0354
3454.00,0.0370
3441.00,0.0387
3428.00,0.0408
3415.00,0.0431
3402.00,0.0443
3389.00,0.0434
3376.00,0.0414
3363.00,0.0393
3350.00,0.0376
3337.00,0.0365
3324.00,0.0360
3311.00,0.0359
3298.00,0.0362
3285.00,0.0367
3272.00,0.0367
3259.00,0.0370
3246.00,0.0367
3233.00,0.0361
3220.00,0.0350
3207.00,0.0332
3194.00,0.0310
3181.00,0.0290
3168.00,0.0269
3155.00,0.0249
3142.00,0.0232
3129.00,0.0219
3116.00,0.0208
3103.00,0.0197
3090.00,0.0191
3077.00,0.0187
3064.00,0.0182
3051.00,0.0181
3038.00,0.0180
3025.00,0.0179
3012.00,0.0179
2999.00,0.0216
2986.00,0.0284
2973.00,0.0367
2960.00,0.0452
2947.00,0.0396
2934.00,0.0489
2921.00,0.0546
2908.00,0.0411
2895.00,0.0356
2882.00,0.0335
2869.00,0.0360
2856.00,0.0429
2843.00,0.0297
2830.00,0.0226
2817.00,0.0197
2804.00,0.0184
2791.00,0.0175
2778.00,0.0169
2765.00,0.0165
2752.00,0.0164
2739.00,0.0165
2726.00,0.0167
2713.00,0.0163
2700.00,0.0161
2687.00,0.0158
2674.00,0.0157
2661.00,0.0161
2648.00,0.0162
2635.00,0.0159
2622.00,0.0156
2609.00,0.0154
2596.00,0.0155
2583.00,0.0154
2570.00,0.0153
2557.00,0.0150
2544.00,0.0148
2531.00,0.0148
2518.00,0.0145
2505.00,0.0143
2492.00,0.0143
2479.00,0.0141
2466.00,0.0140
2453.00,0.0142
2440.00,0.0140
2427.00,0.0140
2414.00,0.0139
2401.00,0.0139
2388.00,0.0138
2375.00,0.0138
2362.00,0.0138
2349.00,0.0139
2336.00,0.0141
2323.00,0.0153
2310.00,0.0144
2297.00,0.0146
2284.00,0.0149
2271.00,0.0144
2258.00,0.0141
2245.00,0.0142
2232.00,0.0141
2219.00,0.0142
2206.00,0.0141
2193.00,0.0143
2180.00,0.0139
2167.00,0.0153
2154.00,0.0116
2141.00,0.0125
2128.00,0.0129
2115.00,0.0139
2102.00,0.0136
2089.00,0.0135
2076.00,0.0136
2063.00,0.0131
2050.00,0.0136
2037.00,0.0130
2024.00,0.0124
2011.00,0.0122
1998.00,0.0119
1985.00,0.0131
1972.00,0.0115
1959.00,0.0111
1946.00,0.0115
1933.00,0.0117
1920.00,0.0120
1907.00,0.0128
1894.00,0.0124
1881.00,0.0121
1868.00,0.0118
1855.00,0.0122
1842.00,0.0120
1829.00,0.0118
1816.00,0.0118
1803.00,0.0120
1790.00,0.0119
1777.00,0.0123
1764.00,0.0125
1751.00,0.0126
1738.00,0.0131
1725.00,0.0152
1712.00,0.0180
1699.00,0.0279
1686.00,0.0613
1673.00,0.1077
1660.00,0.1467
1647.00,0.1565
1634.00,0.1218
1621.00,0.1137
1608.00,0.0779
1595.00,0.0474
1582.00,0.0589
1569.00,0.0407
1556.00,0.0273
1543.00,0.0243
1530.00,0.0229
1517.00,0.0244
1504.00,0.0337
1491.00,0.0502
1478.00,0.0311
1465.00,0.0744
1452.00,0.0629
1439.00,0.0972
1426.00,0.1144
1413.00,0.0757
1400.00,0.0687
1387.00,0.0540
1374.00,0.0555
1361.00,0.0598
1348.00,0.0472
1335.00,0.0414
1322.00,0.0543
1309.00,0.0514
1296.00,0.0909
1283.00,0.1284
1270.00,0.1089
1257.00,0.0674
1244.00,0.0639
1231.00,0.0786
1218.00,0.0699
1205.00,0.0576
1192.00,0.0689
1179.00,0.0480
1166.00,0.0491
1153.00,0.0646
1140.00,0.0395
1127.00,0.0680
1114.00,0.0443
1101.00,0.0522
1088.00,0.0380
1075.00,0.0380
1062.00,0.0462
1049.00,0.0816
1036.00,0.0510
1023.00,0.0692
1010.00,0.0428
997.00,0.0473
984.00,0.0352
971.00,0.0327
958.00,0.0314
945.00,0.0298
932.00,0.0375
919.00,0.0352
906.00,0.0309
893.00,0.0364
880.00,0.0320
867.00,0.0541
854.00,0.0500
841.00,0.0524
828.00,0.0493
815.00,0.0677
802.00,0.0363
789.00,0.0360
776.00,0.0410
763.00,0.0436
750.00,0.0508
737.00,0.0674
724.00,0.0619
711.00,0.0605
698.00,0.0643
685.00,0.0697
672.00,0.0806
659.00,0.0909
646.00,0.0958
633.00,0.0888
620.00,0.0910
607.00,0.0911
594.00,0.1014
581.00,0.1095
568.00,0.1110
555.00,0.1094
542.00,0.1094
529.00,0.1095
516.00,0.0993
503.00,0.0993
490.00,0.1007
477.00,0.0981
464.00,0.0969
451.00,0.0932
438.00,0.0890
425.00,0.0839
412.00,0.0827
400.00,0.0780