File: FTIR/Olivia/2025_08_01_1CBN_3PVP10_drybatchpowder_scan1.csv
Created as New Dataset,Sample 1012 By YargerLab Date Friday, August 01 2025
cm-1,A
4000.00,0.0093
3987.00,0.0092
3974.00,0.0092
3961.00,0.0092
3948.00,0.0092
3935.00,0.0093
3922.00,0.0093
3909.00,0.0092
3896.00,0.0093
3883.00,0.0094
3870.00,0.0094
3857.00,0.0094
3844.00,0.0094
3831.00,0.0093
3818.00,0.0095
3805.00,0.0094
3792.00,0.0092
3779.00,0.0092
3766.00,0.0092
3753.00,0.0095
3740.00,0.0094
3727.00,0.0091
3714.00,0.0092
3701.00,0.0090
3688.00,0.0093
3675.00,0.0095
3662.00,0.0095
3649.00,0.0103
3636.00,0.0105
3623.00,0.0112
3610.00,0.0122
3597.00,0.0130
3584.00,0.0142
3571.00,0.0155
3558.00,0.0168
3545.00,0.0182
3532.00,0.0194
3519.00,0.0204
3506.00,0.0213
3493.00,0.0222
3480.00,0.0230
3467.00,0.0240
3454.00,0.0249
3441.00,0.0259
3428.00,0.0270
3415.00,0.0283
3402.00,0.0290
3389.00,0.0284
3376.00,0.0274
3363.00,0.0263
3350.00,0.0254
3337.00,0.0248
3324.00,0.0245
3311.00,0.0244
3298.00,0.0246
3285.00,0.0249
3272.00,0.0247
3259.00,0.0248
3246.00,0.0245
3233.00,0.0240
3220.00,0.0233
3207.00,0.0221
3194.00,0.0209
3181.00,0.0197
3168.00,0.0185
3155.00,0.0174
3142.00,0.0164
3129.00,0.0156
3116.00,0.0150
3103.00,0.0144
3090.00,0.0140
3077.00,0.0138
3064.00,0.0134
3051.00,0.0132
3038.00,0.0130
3025.00,0.0130
3012.00,0.0129
2999.00,0.0148
2986.00,0.0185
2973.00,0.0227
2960.00,0.0275
2947.00,0.0249
2934.00,0.0290
2921.00,0.0324
2908.00,0.0257
2895.00,0.0230
2882.00,0.0219
2869.00,0.0231
2856.00,0.0263
2843.00,0.0198
2830.00,0.0160
2817.00,0.0144
2804.00,0.0137
2791.00,0.0132
2778.00,0.0128
2765.00,0.0126
2752.00,0.0125
2739.00,0.0125
2726.00,0.0126
2713.00,0.0124
2700.00,0.0123
2687.00,0.0121
2674.00,0.0121
2661.00,0.0124
2648.00,0.0124
2635.00,0.0124
2622.00,0.0120
2609.00,0.0120
2596.00,0.0119
2583.00,0.0120
2570.00,0.0118
2557.00,0.0116
2544.00,0.0116
2531.00,0.0115
2518.00,0.0113
2505.00,0.0112
2492.00,0.0113
2479.00,0.0111
2466.00,0.0110
2453.00,0.0111
2440.00,0.0111
2427.00,0.0110
2414.00,0.0109
2401.00,0.0109
2388.00,0.0109
2375.00,0.0109
2362.00,0.0110
2349.00,0.0110
2336.00,0.0111
2323.00,0.0122
2310.00,0.0115
2297.00,0.0117
2284.00,0.0119
2271.00,0.0116
2258.00,0.0114
2245.00,0.0113
2232.00,0.0113
2219.00,0.0114
2206.00,0.0112
2193.00,0.0117
2180.00,0.0111
2167.00,0.0121
2154.00,0.0094
2141.00,0.0097
2128.00,0.0102
2115.00,0.0112
2102.00,0.0110
2089.00,0.0107
2076.00,0.0110
2063.00,0.0106
2050.00,0.0115
2037.00,0.0105
2024.00,0.0098
2011.00,0.0100
1998.00,0.0096
1985.00,0.0107
1972.00,0.0094
1959.00,0.0090
1946.00,0.0090
1933.00,0.0092
1920.00,0.0096
1907.00,0.0100
1894.00,0.0098
1881.00,0.0096
1868.00,0.0095
1855.00,0.0096
1842.00,0.0095
1829.00,0.0094
1816.00,0.0091
1803.00,0.0094
1790.00,0.0093
1777.00,0.0093
1764.00,0.0094
1751.00,0.0094
1738.00,0.0095
1725.00,0.0105
1712.00,0.0118
1699.00,0.0168
1686.00,0.0353
1673.00,0.0629
1660.00,0.0869
1647.00,0.0950
1634.00,0.0780
1621.00,0.0699
1608.00,0.0499
1595.00,0.0329
1582.00,0.0373
1569.00,0.0279
1556.00,0.0205
1543.00,0.0188
1530.00,0.0176
1517.00,0.0179
1504.00,0.0226
1491.00,0.0325
1478.00,0.0212
1465.00,0.0459
1452.00,0.0393
1439.00,0.0591
1426.00,0.0676
1413.00,0.0469
1400.00,0.0417
1387.00,0.0341
1374.00,0.0355
1361.00,0.0370
1348.00,0.0302
1335.00,0.0272
1322.00,0.0348
1309.00,0.0327
1296.00,0.0553
1283.00,0.0764
1270.00,0.0669
1257.00,0.0439
1244.00,0.0409
1231.00,0.0488
1218.00,0.0448
1205.00,0.0383
1192.00,0.0436
1179.00,0.0332
1166.00,0.0338
1153.00,0.0412
1140.00,0.0283
1127.00,0.0424
1114.00,0.0309
1101.00,0.0346
1088.00,0.0277
1075.00,0.0276
1062.00,0.0310
1049.00,0.0491
1036.00,0.0339
1023.00,0.0437
1010.00,0.0301
997.00,0.0326
984.00,0.0263
971.00,0.0247
958.00,0.0239
945.00,0.0228
932.00,0.0270
919.00,0.0257
906.00,0.0233
893.00,0.0262
880.00,0.0236
867.00,0.0352
854.00,0.0331
841.00,0.0350
828.00,0.0337
815.00,0.0429
802.00,0.0271
789.00,0.0271
776.00,0.0297
763.00,0.0313
750.00,0.0357
737.00,0.0449
724.00,0.0426
711.00,0.0419
698.00,0.0440
685.00,0.0471
672.00,0.0531
659.00,0.0591
646.00,0.0630
633.00,0.0595
620.00,0.0603
607.00,0.0605
594.00,0.0661
581.00,0.0712
568.00,0.0726
555.00,0.0718
542.00,0.0718
529.00,0.0720
516.00,0.0675
503.00,0.0673
490.00,0.0682
477.00,0.0671
464.00,0.0667
451.00,0.0642
438.00,0.0621
425.00,0.0585
412.00,0.0575
400.00,0.0569