File: FTIR/Olivia/2025_08_06_1CBN_CBN_MP_Powder_Floraworks1.csv
Created as New Dataset,Sample 008 By YargerLab Date Wednesday, August 06 2025
cm-1,A
4000.00,0.0016
3987.00,0.0017
3974.00,0.0017
3961.00,0.0017
3948.00,0.0017
3935.00,0.0017
3922.00,0.0017
3909.00,0.0017
3896.00,0.0017
3883.00,0.0016
3870.00,0.0017
3857.00,0.0017
3844.00,0.0017
3831.00,0.0016
3818.00,0.0016
3805.00,0.0016
3792.00,0.0017
3779.00,0.0017
3766.00,0.0017
3753.00,0.0017
3740.00,0.0017
3727.00,0.0016
3714.00,0.0017
3701.00,0.0016
3688.00,0.0015
3675.00,0.0016
3662.00,0.0016
3649.00,0.0015
3636.00,0.0016
3623.00,0.0016
3610.00,0.0017
3597.00,0.0017
3584.00,0.0019
3571.00,0.0021
3558.00,0.0022
3545.00,0.0023
3532.00,0.0025
3519.00,0.0027
3506.00,0.0028
3493.00,0.0030
3480.00,0.0032
3467.00,0.0035
3454.00,0.0038
3441.00,0.0042
3428.00,0.0044
3415.00,0.0050
3402.00,0.0055
3389.00,0.0060
3376.00,0.0058
3363.00,0.0054
3350.00,0.0052
3337.00,0.0050
3324.00,0.0050
3311.00,0.0049
3298.00,0.0050
3285.00,0.0053
3272.00,0.0054
3259.00,0.0057
3246.00,0.0059
3233.00,0.0060
3220.00,0.0063
3207.00,0.0063
3194.00,0.0061
3181.00,0.0059
3168.00,0.0056
3155.00,0.0052
3142.00,0.0049
3129.00,0.0046
3116.00,0.0044
3103.00,0.0041
3090.00,0.0041
3077.00,0.0039
3064.00,0.0038
3051.00,0.0036
3038.00,0.0036
3025.00,0.0034
3012.00,0.0033
2999.00,0.0040
2986.00,0.0050
2973.00,0.0072
2960.00,0.0083
2947.00,0.0073
2934.00,0.0103
2921.00,0.0106
2908.00,0.0081
2895.00,0.0069
2882.00,0.0065
2869.00,0.0071
2856.00,0.0088
2843.00,0.0062
2830.00,0.0047
2817.00,0.0040
2804.00,0.0037
2791.00,0.0035
2778.00,0.0034
2765.00,0.0032
2752.00,0.0032
2739.00,0.0032
2726.00,0.0033
2713.00,0.0032
2700.00,0.0031
2687.00,0.0030
2674.00,0.0030
2661.00,0.0033
2648.00,0.0035
2635.00,0.0034
2622.00,0.0032
2609.00,0.0031
2596.00,0.0031
2583.00,0.0030
2570.00,0.0029
2557.00,0.0028
2544.00,0.0026
2531.00,0.0026
2518.00,0.0026
2505.00,0.0024
2492.00,0.0023
2479.00,0.0024
2466.00,0.0024
2453.00,0.0025
2440.00,0.0024
2427.00,0.0022
2414.00,0.0022
2401.00,0.0020
2388.00,0.0018
2375.00,0.0015
2362.00,0.0015
2349.00,0.0017
2336.00,0.0020
2323.00,0.0031
2310.00,0.0021
2297.00,0.0026
2284.00,0.0032
2271.00,0.0028
2258.00,0.0025
2245.00,0.0025
2232.00,0.0024
2219.00,0.0024
2206.00,0.0023
2193.00,0.0028
2180.00,0.0022
2167.00,0.0033
2154.00,-0.0000
2141.00,0.0009
2128.00,0.0010
2115.00,0.0021
2102.00,0.0021
2089.00,0.0021
2076.00,0.0025
2063.00,0.0021
2050.00,0.0030
2037.00,0.0026
2024.00,0.0014
2011.00,0.0015
1998.00,0.0013
1985.00,0.0025
1972.00,0.0014
1959.00,0.0007
1946.00,0.0013
1933.00,0.0013
1920.00,0.0017
1907.00,0.0019
1894.00,0.0018
1881.00,0.0019
1868.00,0.0019
1855.00,0.0019
1842.00,0.0019
1829.00,0.0019
1816.00,0.0017
1803.00,0.0020
1790.00,0.0020
1777.00,0.0021
1764.00,0.0022
1751.00,0.0023
1738.00,0.0024
1725.00,0.0027
1712.00,0.0032
1699.00,0.0055
1686.00,0.0120
1673.00,0.0172
1660.00,0.0213
1647.00,0.0206
1634.00,0.0141
1621.00,0.0194
1608.00,0.0148
1595.00,0.0086
1582.00,0.0132
1569.00,0.0089
1556.00,0.0056
1543.00,0.0048
1530.00,0.0044
1517.00,0.0053
1504.00,0.0065
1491.00,0.0094
1478.00,0.0057
1465.00,0.0136
1452.00,0.0123
1439.00,0.0172
1426.00,0.0205
1413.00,0.0145
1400.00,0.0169
1387.00,0.0124
1374.00,0.0123
1361.00,0.0145
1348.00,0.0112
1335.00,0.0094
1322.00,0.0104
1309.00,0.0107
1296.00,0.0175
1283.00,0.0230
1270.00,0.0173
1257.00,0.0109
1244.00,0.0126
1231.00,0.0151
1218.00,0.0135
1205.00,0.0108
1192.00,0.0148
1179.00,0.0090
1166.00,0.0093
1153.00,0.0148
1140.00,0.0082
1127.00,0.0170
1114.00,0.0104
1101.00,0.0129
1088.00,0.0077
1075.00,0.0073
1062.00,0.0116
1049.00,0.0208
1036.00,0.0129
1023.00,0.0169
1010.00,0.0104
997.00,0.0112
984.00,0.0082
971.00,0.0074
958.00,0.0091
945.00,0.0067
932.00,0.0085
919.00,0.0082
906.00,0.0070
893.00,0.0080
880.00,0.0073
867.00,0.0147
854.00,0.0126
841.00,0.0127
828.00,0.0125
815.00,0.0207
802.00,0.0092
789.00,0.0083
776.00,0.0093
763.00,0.0093
750.00,0.0100
737.00,0.0144
724.00,0.0132
711.00,0.0128
698.00,0.0135
685.00,0.0144
672.00,0.0166
659.00,0.0182
646.00,0.0173
633.00,0.0157
620.00,0.0171
607.00,0.0172
594.00,0.0214
581.00,0.0215
568.00,0.0207
555.00,0.0206
542.00,0.0221
529.00,0.0223
516.00,0.0177
503.00,0.0182
490.00,0.0184
477.00,0.0168
464.00,0.0161
451.00,0.0154
438.00,0.0149
425.00,0.0137
412.00,0.0175
400.00,0.0124