File: FTIR/Olivia/2025_06_05_CBD_Powder_scan1.csv
Created as New Dataset,Sample 582 By YargerLab Date Thursday, June 05 2025
cm-1,A
4000.00,0.0085
3987.00,0.0084
3974.00,0.0085
3961.00,0.0086
3948.00,0.0086
3935.00,0.0086
3922.00,0.0087
3909.00,0.0085
3896.00,0.0083
3883.00,0.0081
3870.00,0.0081
3857.00,0.0080
3844.00,0.0080
3831.00,0.0080
3818.00,0.0078
3805.00,0.0079
3792.00,0.0079
3779.00,0.0079
3766.00,0.0078
3753.00,0.0077
3740.00,0.0074
3727.00,0.0075
3714.00,0.0073
3701.00,0.0074
3688.00,0.0073
3675.00,0.0070
3662.00,0.0070
3649.00,0.0067
3636.00,0.0069
3623.00,0.0071
3610.00,0.0073
3597.00,0.0074
3584.00,0.0078
3571.00,0.0083
3558.00,0.0095
3545.00,0.0126
3532.00,0.0251
3519.00,0.0562
3506.00,0.0309
3493.00,0.0268
3480.00,0.0306
3467.00,0.0385
3454.00,0.0487
3441.00,0.0584
3428.00,0.0673
3415.00,0.0810
3402.00,0.0805
3389.00,0.0506
3376.00,0.0349
3363.00,0.0264
3350.00,0.0212
3337.00,0.0178
3324.00,0.0156
3311.00,0.0140
3298.00,0.0126
3285.00,0.0117
3272.00,0.0108
3259.00,0.0107
3246.00,0.0103
3233.00,0.0099
3220.00,0.0097
3207.00,0.0096
3194.00,0.0094
3181.00,0.0094
3168.00,0.0098
3155.00,0.0095
3142.00,0.0093
3129.00,0.0093
3116.00,0.0093
3103.00,0.0093
3090.00,0.0098
3077.00,0.0178
3064.00,0.0114
3051.00,0.0105
3038.00,0.0122
3025.00,0.0120
3012.00,0.0114
2999.00,0.0121
2986.00,0.0153
2973.00,0.0314
2960.00,0.0480
2947.00,0.0410
2934.00,0.0720
2921.00,0.0937
2908.00,0.0698
2895.00,0.0464
2882.00,0.0387
2869.00,0.0437
2856.00,0.0710
2843.00,0.0303
2830.00,0.0389
2817.00,0.0179
2804.00,0.0143
2791.00,0.0125
2778.00,0.0115
2765.00,0.0109
2752.00,0.0106
2739.00,0.0111
2726.00,0.0123
2713.00,0.0105
2700.00,0.0100
2687.00,0.0101
2674.00,0.0106
2661.00,0.0108
2648.00,0.0106
2635.00,0.0102
2622.00,0.0101
2609.00,0.0100
2596.00,0.0098
2583.00,0.0098
2570.00,0.0097
2557.00,0.0096
2544.00,0.0094
2531.00,0.0093
2518.00,0.0094
2505.00,0.0093
2492.00,0.0093
2479.00,0.0094
2466.00,0.0094
2453.00,0.0097
2440.00,0.0090
2427.00,0.0086
2414.00,0.0082
2401.00,0.0080
2388.00,0.0080
2375.00,0.0075
2362.00,0.0074
2349.00,0.0072
2336.00,0.0079
2323.00,0.0089
2310.00,0.0081
2297.00,0.0084
2284.00,0.0087
2271.00,0.0080
2258.00,0.0081
2245.00,0.0077
2232.00,0.0079
2219.00,0.0076
2206.00,0.0073
2193.00,0.0073
2180.00,0.0070
2167.00,0.0082
2154.00,0.0046
2141.00,0.0055
2128.00,0.0057
2115.00,0.0068
2102.00,0.0065
2089.00,0.0066
2076.00,0.0066
2063.00,0.0060
2050.00,0.0070
2037.00,0.0055
2024.00,0.0052
2011.00,0.0046
1998.00,0.0049
1985.00,0.0068
1972.00,0.0048
1959.00,0.0048
1946.00,0.0052
1933.00,0.0053
1920.00,0.0058
1907.00,0.0061
1894.00,0.0063
1881.00,0.0063
1868.00,0.0063
1855.00,0.0063
1842.00,0.0064
1829.00,0.0065
1816.00,0.0065
1803.00,0.0078
1790.00,0.0072
1777.00,0.0076
1764.00,0.0074
1751.00,0.0070
1738.00,0.0071
1725.00,0.0074
1712.00,0.0082
1699.00,0.0090
1686.00,0.0088
1673.00,0.0094
1660.00,0.0130
1647.00,0.0322
1634.00,0.0639
1621.00,0.0939
1608.00,0.0276
1595.00,0.0310
1582.00,0.1167
1569.00,0.0385
1556.00,0.0175
1543.00,0.0135
1530.00,0.0136
1517.00,0.0282
1504.00,0.0202
1491.00,0.0137
1478.00,0.0139
1465.00,0.0417
1452.00,0.0759
1439.00,0.1352
1426.00,0.0548
1413.00,0.0200
1400.00,0.0157
1387.00,0.0158
1374.00,0.0594
1361.00,0.0276
1348.00,0.0283
1335.00,0.0283
1322.00,0.0392
1309.00,0.0588
1296.00,0.0563
1283.00,0.0543
1270.00,0.0389
1257.00,0.0191
1244.00,0.0327
1231.00,0.0642
1218.00,0.1491
1205.00,0.0962
1192.00,0.0397
1179.00,0.0526
1166.00,0.0335
1153.00,0.0487
1140.00,0.0216
1127.00,0.0171
1114.00,0.0166
1101.00,0.0297
1088.00,0.0191
1075.00,0.0257
1062.00,0.0219
1049.00,0.0706
1036.00,0.0606
1023.00,0.0786
1010.00,0.0596
997.00,0.0521
984.00,0.0429
971.00,0.0295
958.00,0.0401
945.00,0.0193
932.00,0.0199
919.00,0.0234
906.00,0.0354
893.00,0.0927
880.00,0.0963
867.00,0.0544
854.00,0.0746
841.00,0.0598
828.00,0.0769
815.00,0.0326
802.00,0.0575
789.00,0.0283
776.00,0.0244
763.00,0.0191
750.00,0.0317
737.00,0.0200
724.00,0.0228
711.00,0.0178
698.00,0.0149
685.00,0.0154
672.00,0.0234
659.00,0.0325
646.00,0.0325
633.00,0.0260
620.00,0.0292
607.00,0.0353
594.00,0.0442
581.00,0.0503
568.00,0.0461
555.00,0.0486
542.00,0.0652
529.00,0.0758
516.00,0.0681
503.00,0.0863
490.00,0.1090
477.00,0.0922
464.00,0.1033
451.00,0.0974
438.00,0.0799
425.00,0.1047
412.00,0.1018
400.00,0.1250