File: FTIR/Olivia/2025_08_07_Polystyrene_film_scan2.csv
Created as New Dataset,Sample 013 By YargerLab Date Thursday, August 07 2025
cm-1,A
4000.00,0.0007
3987.00,0.0006
3974.00,0.0006
3961.00,0.0007
3948.00,0.0007
3935.00,0.0007
3922.00,0.0006
3909.00,0.0006
3896.00,0.0007
3883.00,0.0007
3870.00,0.0009
3857.00,0.0009
3844.00,0.0007
3831.00,0.0009
3818.00,0.0010
3805.00,0.0009
3792.00,0.0008
3779.00,0.0008
3766.00,0.0008
3753.00,0.0010
3740.00,0.0010
3727.00,0.0009
3714.00,0.0008
3701.00,0.0008
3688.00,0.0009
3675.00,0.0009
3662.00,0.0007
3649.00,0.0009
3636.00,0.0007
3623.00,0.0008
3610.00,0.0007
3597.00,0.0006
3584.00,0.0006
3571.00,0.0006
3558.00,0.0006
3545.00,0.0006
3532.00,0.0007
3519.00,0.0008
3506.00,0.0009
3493.00,0.0008
3480.00,0.0008
3467.00,0.0008
3454.00,0.0008
3441.00,0.0008
3428.00,0.0009
3415.00,0.0008
3402.00,0.0009
3389.00,0.0009
3376.00,0.0008
3363.00,0.0008
3350.00,0.0009
3337.00,0.0009
3324.00,0.0008
3311.00,0.0008
3298.00,0.0008
3285.00,0.0008
3272.00,0.0009
3259.00,0.0009
3246.00,0.0007
3233.00,0.0008
3220.00,0.0008
3207.00,0.0008
3194.00,0.0007
3181.00,0.0007
3168.00,0.0007
3155.00,0.0008
3142.00,0.0006
3129.00,0.0007
3116.00,0.0010
3103.00,0.0021
3090.00,0.0033
3077.00,0.0042
3064.00,0.0064
3051.00,0.0046
3038.00,0.0055
3025.00,0.0134
3012.00,0.0041
2999.00,0.0038
2986.00,0.0021
2973.00,0.0023
2960.00,0.0035
2947.00,0.0065
2934.00,0.0126
2921.00,0.0166
2908.00,0.0130
2895.00,0.0081
2882.00,0.0058
2869.00,0.0048
2856.00,0.0068
2843.00,0.0062
2830.00,0.0024
2817.00,0.0018
2804.00,0.0016
2791.00,0.0014
2778.00,0.0013
2765.00,0.0012
2752.00,0.0011
2739.00,0.0011
2726.00,0.0011
2713.00,0.0011
2700.00,0.0011
2687.00,0.0011
2674.00,0.0011
2661.00,0.0015
2648.00,0.0017
2635.00,0.0018
2622.00,0.0015
2609.00,0.0015
2596.00,0.0013
2583.00,0.0012
2570.00,0.0011
2557.00,0.0009
2544.00,0.0009
2531.00,0.0008
2518.00,0.0008
2505.00,0.0008
2492.00,0.0008
2479.00,0.0007
2466.00,0.0007
2453.00,0.0008
2440.00,0.0006
2427.00,0.0005
2414.00,0.0005
2401.00,0.0003
2388.00,0.0002
2375.00,0.0002
2362.00,0.0003
2349.00,0.0005
2336.00,0.0008
2323.00,0.0018
2310.00,0.0012
2297.00,0.0013
2284.00,0.0017
2271.00,0.0011
2258.00,0.0011
2245.00,0.0010
2232.00,0.0008
2219.00,0.0006
2206.00,0.0009
2193.00,0.0009
2180.00,0.0007
2167.00,0.0016
2154.00,-0.0019
2141.00,-0.0013
2128.00,-0.0009
2115.00,0.0004
2102.00,0.0002
2089.00,0.0003
2076.00,0.0007
2063.00,0.0002
2050.00,0.0013
2037.00,0.0009
2024.00,-0.0004
2011.00,0.0003
1998.00,0.0001
1985.00,0.0011
1972.00,-0.0001
1959.00,0.0001
1946.00,0.0012
1933.00,0.0007
1920.00,0.0002
1907.00,0.0003
1894.00,0.0008
1881.00,0.0013
1868.00,0.0015
1855.00,0.0007
1842.00,0.0003
1829.00,0.0006
1816.00,0.0010
1803.00,0.0020
1790.00,0.0013
1777.00,0.0011
1764.00,0.0013
1751.00,0.0021
1738.00,0.0024
1725.00,0.0019
1712.00,0.0016
1699.00,0.0015
1686.00,0.0015
1673.00,0.0016
1660.00,0.0016
1647.00,0.0012
1634.00,0.0012
1621.00,0.0015
1608.00,0.0055
1595.00,0.0064
1582.00,0.0051
1569.00,0.0014
1556.00,0.0014
1543.00,0.0019
1530.00,0.0014
1517.00,0.0012
1504.00,0.0028
1491.00,0.0269
1478.00,0.0037
1465.00,0.0038
1452.00,0.0304
1439.00,0.0119
1426.00,0.0039
1413.00,0.0029
1400.00,0.0029
1387.00,0.0045
1374.00,0.0069
1361.00,0.0065
1348.00,0.0058
1335.00,0.0054
1322.00,0.0056
1309.00,0.0057
1296.00,0.0048
1283.00,0.0044
1270.00,0.0035
1257.00,0.0033
1244.00,0.0033
1231.00,0.0033
1218.00,0.0033
1205.00,0.0041
1192.00,0.0052
1179.00,0.0066
1166.00,0.0042
1153.00,0.0070
1140.00,0.0031
1127.00,0.0030
1114.00,0.0039
1101.00,0.0042
1088.00,0.0052
1075.00,0.0083
1062.00,0.0080
1049.00,0.0052
1036.00,0.0077
1023.00,0.0118
1010.00,0.0068
997.00,0.0055
984.00,0.0064
971.00,0.0064
958.00,0.0060
945.00,0.0055
932.00,0.0042
919.00,0.0049
906.00,0.0106
893.00,0.0043
880.00,0.0031
867.00,0.0026
854.00,0.0030
841.00,0.0056
828.00,0.0025
815.00,0.0023
802.00,0.0026
789.00,0.0051
776.00,0.0131
763.00,0.0323
750.00,0.0411
737.00,0.0195
724.00,0.0052
711.00,0.0128
698.00,0.0901
685.00,0.0366
672.00,0.0178
659.00,0.0114
646.00,0.0078
633.00,0.0084
620.00,0.0097
607.00,0.0079
594.00,0.0086
581.00,0.0108
568.00,0.0168
555.00,0.0235
542.00,0.0360
529.00,0.0268
516.00,0.0147
503.00,0.0104
490.00,0.0079
477.00,0.0074
464.00,0.0073
451.00,0.0068
438.00,0.0067
425.00,0.0051
412.00,0.0064
400.00,0.0033