File: FTIR/Olivia/2025_08_01_1CBN_3PVP10kDa_MC_glass_scan3.csv
Created as New Dataset,Sample 1019 By YargerLab Date Friday, August 01 2025
cm-1,A
4000.00,0.0022
3987.00,0.0023
3974.00,0.0022
3961.00,0.0023
3948.00,0.0023
3935.00,0.0023
3922.00,0.0023
3909.00,0.0023
3896.00,0.0024
3883.00,0.0025
3870.00,0.0026
3857.00,0.0025
3844.00,0.0024
3831.00,0.0024
3818.00,0.0027
3805.00,0.0025
3792.00,0.0023
3779.00,0.0024
3766.00,0.0023
3753.00,0.0028
3740.00,0.0027
3727.00,0.0024
3714.00,0.0024
3701.00,0.0022
3688.00,0.0024
3675.00,0.0028
3662.00,0.0024
3649.00,0.0031
3636.00,0.0028
3623.00,0.0033
3610.00,0.0038
3597.00,0.0039
3584.00,0.0044
3571.00,0.0050
3558.00,0.0054
3545.00,0.0060
3532.00,0.0063
3519.00,0.0066
3506.00,0.0069
3493.00,0.0072
3480.00,0.0074
3467.00,0.0076
3454.00,0.0078
3441.00,0.0078
3428.00,0.0079
3415.00,0.0078
3402.00,0.0077
3389.00,0.0076
3376.00,0.0075
3363.00,0.0073
3350.00,0.0071
3337.00,0.0070
3324.00,0.0069
3311.00,0.0068
3298.00,0.0068
3285.00,0.0067
3272.00,0.0067
3259.00,0.0065
3246.00,0.0065
3233.00,0.0063
3220.00,0.0061
3207.00,0.0060
3194.00,0.0058
3181.00,0.0057
3168.00,0.0056
3155.00,0.0054
3142.00,0.0053
3129.00,0.0053
3116.00,0.0051
3103.00,0.0050
3090.00,0.0050
3077.00,0.0050
3064.00,0.0048
3051.00,0.0047
3038.00,0.0047
3025.00,0.0046
3012.00,0.0047
2999.00,0.0056
2986.00,0.0077
2973.00,0.0092
2960.00,0.0106
2947.00,0.0110
2934.00,0.0110
2921.00,0.0112
2908.00,0.0098
2895.00,0.0091
2882.00,0.0090
2869.00,0.0093
2856.00,0.0087
2843.00,0.0067
2830.00,0.0055
2817.00,0.0047
2804.00,0.0043
2791.00,0.0041
2778.00,0.0039
2765.00,0.0038
2752.00,0.0038
2739.00,0.0038
2726.00,0.0038
2713.00,0.0037
2700.00,0.0037
2687.00,0.0036
2674.00,0.0035
2661.00,0.0037
2648.00,0.0038
2635.00,0.0037
2622.00,0.0036
2609.00,0.0035
2596.00,0.0033
2583.00,0.0033
2570.00,0.0032
2557.00,0.0032
2544.00,0.0031
2531.00,0.0029
2518.00,0.0028
2505.00,0.0027
2492.00,0.0026
2479.00,0.0027
2466.00,0.0027
2453.00,0.0028
2440.00,0.0026
2427.00,0.0025
2414.00,0.0025
2401.00,0.0024
2388.00,0.0023
2375.00,0.0015
2362.00,0.0016
2349.00,0.0016
2336.00,0.0020
2323.00,0.0029
2310.00,0.0022
2297.00,0.0028
2284.00,0.0034
2271.00,0.0031
2258.00,0.0030
2245.00,0.0027
2232.00,0.0030
2219.00,0.0028
2206.00,0.0028
2193.00,0.0030
2180.00,0.0028
2167.00,0.0037
2154.00,0.0011
2141.00,0.0014
2128.00,0.0014
2115.00,0.0025
2102.00,0.0026
2089.00,0.0025
2076.00,0.0026
2063.00,0.0022
2050.00,0.0034
2037.00,0.0027
2024.00,0.0020
2011.00,0.0023
1998.00,0.0021
1985.00,0.0027
1972.00,0.0010
1959.00,0.0011
1946.00,0.0016
1933.00,0.0016
1920.00,0.0018
1907.00,0.0019
1894.00,0.0019
1881.00,0.0019
1868.00,0.0019
1855.00,0.0019
1842.00,0.0019
1829.00,0.0021
1816.00,0.0017
1803.00,0.0020
1790.00,0.0021
1777.00,0.0021
1764.00,0.0022
1751.00,0.0022
1738.00,0.0023
1725.00,0.0027
1712.00,0.0041
1699.00,0.0109
1686.00,0.0304
1673.00,0.0435
1660.00,0.0499
1647.00,0.0473
1634.00,0.0286
1621.00,0.0226
1608.00,0.0179
1595.00,0.0108
1582.00,0.0133
1569.00,0.0086
1556.00,0.0067
1543.00,0.0063
1530.00,0.0059
1517.00,0.0068
1504.00,0.0086
1491.00,0.0140
1478.00,0.0083
1465.00,0.0191
1452.00,0.0176
1439.00,0.0264
1426.00,0.0325
1413.00,0.0229
1400.00,0.0173
1387.00,0.0119
1374.00,0.0150
1361.00,0.0139
1348.00,0.0097
1335.00,0.0101
1322.00,0.0140
1309.00,0.0141
1296.00,0.0232
1283.00,0.0380
1270.00,0.0339
1257.00,0.0198
1244.00,0.0166
1231.00,0.0194
1218.00,0.0194
1205.00,0.0146
1192.00,0.0158
1179.00,0.0121
1166.00,0.0133
1153.00,0.0143
1140.00,0.0096
1127.00,0.0131
1114.00,0.0093
1101.00,0.0110
1088.00,0.0092
1075.00,0.0102
1062.00,0.0171
1049.00,0.0131
1036.00,0.0115
1023.00,0.0113
1010.00,0.0099
997.00,0.0102
984.00,0.0081
971.00,0.0075
958.00,0.0068
945.00,0.0069
932.00,0.0094
919.00,0.0084
906.00,0.0083
893.00,0.0094
880.00,0.0089
867.00,0.0110
854.00,0.0126
841.00,0.0141
828.00,0.0135
815.00,0.0127
802.00,0.0089
789.00,0.0088
776.00,0.0095
763.00,0.0100
750.00,0.0124
737.00,0.0159
724.00,0.0128
711.00,0.0117
698.00,0.0120
685.00,0.0138
672.00,0.0151
659.00,0.0190
646.00,0.0217
633.00,0.0184
620.00,0.0174
607.00,0.0175
594.00,0.0185
581.00,0.0229
568.00,0.0231
555.00,0.0208
542.00,0.0194
529.00,0.0202
516.00,0.0192
503.00,0.0196
490.00,0.0197
477.00,0.0205
464.00,0.0193
451.00,0.0185
438.00,0.0169
425.00,0.0168
412.00,0.0164
400.00,0.0180