File: FTIR/Olivia/2025_06_05_Putative_Cocrystal_Sorbic_CBD_Scan1.csv
Created as New Dataset,Sample 588 By YargerLab Date Thursday, June 05 2025
cm-1,A
4000.00,0.0030
3987.00,0.0030
3974.00,0.0030
3961.00,0.0030
3948.00,0.0030
3935.00,0.0029
3922.00,0.0029
3909.00,0.0029
3896.00,0.0029
3883.00,0.0028
3870.00,0.0028
3857.00,0.0029
3844.00,0.0029
3831.00,0.0028
3818.00,0.0028
3805.00,0.0029
3792.00,0.0028
3779.00,0.0028
3766.00,0.0027
3753.00,0.0027
3740.00,0.0025
3727.00,0.0025
3714.00,0.0026
3701.00,0.0024
3688.00,0.0023
3675.00,0.0022
3662.00,0.0022
3649.00,0.0021
3636.00,0.0022
3623.00,0.0023
3610.00,0.0023
3597.00,0.0024
3584.00,0.0025
3571.00,0.0025
3558.00,0.0027
3545.00,0.0029
3532.00,0.0032
3519.00,0.0036
3506.00,0.0043
3493.00,0.0055
3480.00,0.0072
3467.00,0.0108
3454.00,0.0240
3441.00,0.0192
3428.00,0.0109
3415.00,0.0080
3402.00,0.0072
3389.00,0.0069
3376.00,0.0069
3363.00,0.0069
3350.00,0.0072
3337.00,0.0074
3324.00,0.0077
3311.00,0.0082
3298.00,0.0087
3285.00,0.0095
3272.00,0.0101
3259.00,0.0110
3246.00,0.0113
3233.00,0.0120
3220.00,0.0126
3207.00,0.0133
3194.00,0.0139
3181.00,0.0143
3168.00,0.0146
3155.00,0.0147
3142.00,0.0154
3129.00,0.0159
3116.00,0.0162
3103.00,0.0168
3090.00,0.0169
3077.00,0.0176
3064.00,0.0176
3051.00,0.0156
3038.00,0.0151
3025.00,0.0144
3012.00,0.0136
2999.00,0.0132
2986.00,0.0143
2973.00,0.0162
2960.00,0.0217
2947.00,0.0227
2934.00,0.0299
2921.00,0.0361
2908.00,0.0250
2895.00,0.0196
2882.00,0.0186
2869.00,0.0212
2856.00,0.0233
2843.00,0.0174
2830.00,0.0157
2817.00,0.0119
2804.00,0.0111
2791.00,0.0107
2778.00,0.0109
2765.00,0.0113
2752.00,0.0116
2739.00,0.0117
2726.00,0.0120
2713.00,0.0120
2700.00,0.0122
2687.00,0.0122
2674.00,0.0122
2661.00,0.0125
2648.00,0.0122
2635.00,0.0119
2622.00,0.0116
2609.00,0.0112
2596.00,0.0109
2583.00,0.0105
2570.00,0.0104
2557.00,0.0105
2544.00,0.0102
2531.00,0.0098
2518.00,0.0094
2505.00,0.0090
2492.00,0.0089
2479.00,0.0088
2466.00,0.0086
2453.00,0.0089
2440.00,0.0089
2427.00,0.0086
2414.00,0.0084
2401.00,0.0077
2388.00,0.0071
2375.00,0.0064
2362.00,0.0061
2349.00,0.0059
2336.00,0.0058
2323.00,0.0065
2310.00,0.0053
2297.00,0.0053
2284.00,0.0057
2271.00,0.0050
2258.00,0.0047
2245.00,0.0043
2232.00,0.0043
2219.00,0.0041
2206.00,0.0038
2193.00,0.0041
2180.00,0.0031
2167.00,0.0044
2154.00,0.0011
2141.00,0.0018
2128.00,0.0019
2115.00,0.0028
2102.00,0.0026
2089.00,0.0026
2076.00,0.0029
2063.00,0.0024
2050.00,0.0036
2037.00,0.0028
2024.00,0.0022
2011.00,0.0028
1998.00,0.0019
1985.00,0.0033
1972.00,0.0020
1959.00,0.0015
1946.00,0.0017
1933.00,0.0020
1920.00,0.0022
1907.00,0.0023
1894.00,0.0023
1881.00,0.0024
1868.00,0.0026
1855.00,0.0025
1842.00,0.0026
1829.00,0.0027
1816.00,0.0025
1803.00,0.0031
1790.00,0.0035
1777.00,0.0035
1764.00,0.0035
1751.00,0.0036
1738.00,0.0035
1725.00,0.0035
1712.00,0.0044
1699.00,0.0051
1686.00,0.0057
1673.00,0.0070
1660.00,0.0112
1647.00,0.0260
1634.00,0.0586
1621.00,0.0342
1608.00,0.0223
1595.00,0.0287
1582.00,0.0590
1569.00,0.0575
1556.00,0.0368
1543.00,0.0230
1530.00,0.0212
1517.00,0.0184
1504.00,0.0134
1491.00,0.0117
1478.00,0.0141
1465.00,0.0227
1452.00,0.0482
1439.00,0.0551
1426.00,0.0326
1413.00,0.0289
1400.00,0.0310
1387.00,0.0266
1374.00,0.0333
1361.00,0.0310
1348.00,0.0392
1335.00,0.0363
1322.00,0.0442
1309.00,0.0325
1296.00,0.0302
1283.00,0.0432
1270.00,0.0251
1257.00,0.0210
1244.00,0.0371
1231.00,0.0243
1218.00,0.0238
1205.00,0.0369
1192.00,0.0177
1179.00,0.0205
1166.00,0.0246
1153.00,0.0201
1140.00,0.0135
1127.00,0.0101
1114.00,0.0097
1101.00,0.0147
1088.00,0.0118
1075.00,0.0114
1062.00,0.0161
1049.00,0.0260
1036.00,0.0391
1023.00,0.0250
1010.00,0.0172
997.00,0.0191
984.00,0.0157
971.00,0.0133
958.00,0.0180
945.00,0.0167
932.00,0.0155
919.00,0.0211
906.00,0.0210
893.00,0.0308
880.00,0.0317
867.00,0.0290
854.00,0.0409
841.00,0.0373
828.00,0.0293
815.00,0.0199
802.00,0.0298
789.00,0.0256
776.00,0.0234
763.00,0.0238
750.00,0.0205
737.00,0.0243
724.00,0.0227
711.00,0.0223
698.00,0.0223
685.00,0.0260
672.00,0.0281
659.00,0.0224
646.00,0.0227
633.00,0.0247
620.00,0.0225
607.00,0.0239
594.00,0.0238
581.00,0.0302
568.00,0.0210
555.00,0.0297
542.00,0.0271
529.00,0.0282
516.00,0.0240
503.00,0.0291
490.00,0.0475
477.00,0.0485
464.00,0.0447
451.00,0.0377
438.00,0.0353
425.00,0.0306
412.00,0.0285
400.00,0.0297