File: FTIR/Olivia/2025_07_31_Polystyrene_Std_scan2.csv
Created as New Dataset,Sample 1002 By YargerLab Date Thursday, July 31 2025
cm-1,A
4000.00,0.0003
3987.00,0.0003
3974.00,0.0003
3961.00,0.0003
3948.00,0.0003
3935.00,0.0003
3922.00,0.0003
3909.00,0.0004
3896.00,0.0002
3883.00,0.0002
3870.00,0.0002
3857.00,0.0002
3844.00,0.0003
3831.00,0.0003
3818.00,0.0002
3805.00,0.0003
3792.00,0.0004
3779.00,0.0003
3766.00,0.0003
3753.00,0.0003
3740.00,0.0002
3727.00,0.0002
3714.00,0.0002
3701.00,0.0003
3688.00,0.0001
3675.00,0.0001
3662.00,0.0003
3649.00,0.0000
3636.00,0.0002
3623.00,0.0002
3610.00,0.0002
3597.00,0.0002
3584.00,0.0002
3571.00,0.0003
3558.00,0.0004
3545.00,0.0004
3532.00,0.0005
3519.00,0.0005
3506.00,0.0005
3493.00,0.0005
3480.00,0.0006
3467.00,0.0006
3454.00,0.0006
3441.00,0.0007
3428.00,0.0006
3415.00,0.0006
3402.00,0.0006
3389.00,0.0007
3376.00,0.0006
3363.00,0.0006
3350.00,0.0006
3337.00,0.0006
3324.00,0.0007
3311.00,0.0006
3298.00,0.0006
3285.00,0.0006
3272.00,0.0006
3259.00,0.0006
3246.00,0.0005
3233.00,0.0005
3220.00,0.0005
3207.00,0.0005
3194.00,0.0004
3181.00,0.0004
3168.00,0.0004
3155.00,0.0004
3142.00,0.0004
3129.00,0.0004
3116.00,0.0006
3103.00,0.0012
3090.00,0.0016
3077.00,0.0026
3064.00,0.0034
3051.00,0.0027
3038.00,0.0028
3025.00,0.0081
3012.00,0.0021
2999.00,0.0017
2986.00,0.0004
2973.00,0.0004
2960.00,0.0010
2947.00,0.0027
2934.00,0.0059
2921.00,0.0086
2908.00,0.0069
2895.00,0.0039
2882.00,0.0026
2869.00,0.0020
2856.00,0.0029
2843.00,0.0033
2830.00,0.0010
2817.00,0.0007
2804.00,0.0006
2791.00,0.0006
2778.00,0.0005
2765.00,0.0005
2752.00,0.0005
2739.00,0.0005
2726.00,0.0005
2713.00,0.0005
2700.00,0.0005
2687.00,0.0005
2674.00,0.0005
2661.00,0.0008
2648.00,0.0009
2635.00,0.0009
2622.00,0.0008
2609.00,0.0008
2596.00,0.0007
2583.00,0.0006
2570.00,0.0005
2557.00,0.0005
2544.00,0.0005
2531.00,0.0003
2518.00,0.0003
2505.00,0.0003
2492.00,0.0003
2479.00,0.0003
2466.00,0.0003
2453.00,0.0004
2440.00,0.0003
2427.00,0.0002
2414.00,0.0001
2401.00,-0.0001
2388.00,-0.0001
2375.00,-0.0001
2362.00,0.0001
2349.00,0.0003
2336.00,0.0005
2323.00,0.0014
2310.00,0.0008
2297.00,0.0008
2284.00,0.0010
2271.00,0.0007
2258.00,0.0007
2245.00,0.0003
2232.00,0.0005
2219.00,0.0003
2206.00,0.0003
2193.00,0.0006
2180.00,0.0002
2167.00,0.0008
2154.00,-0.0018
2141.00,-0.0011
2128.00,-0.0010
2115.00,-0.0000
2102.00,-0.0000
2089.00,0.0000
2076.00,0.0001
2063.00,-0.0002
2050.00,0.0010
2037.00,0.0002
2024.00,-0.0005
2011.00,-0.0005
1998.00,-0.0003
1985.00,0.0006
1972.00,-0.0008
1959.00,-0.0004
1946.00,0.0004
1933.00,0.0001
1920.00,-0.0002
1907.00,-0.0002
1894.00,-0.0001
1881.00,0.0004
1868.00,0.0007
1855.00,0.0000
1842.00,-0.0002
1829.00,0.0000
1816.00,0.0003
1803.00,0.0010
1790.00,0.0006
1777.00,0.0004
1764.00,0.0006
1751.00,0.0012
1738.00,0.0015
1725.00,0.0012
1712.00,0.0008
1699.00,0.0008
1686.00,0.0013
1673.00,0.0014
1660.00,0.0014
1647.00,0.0011
1634.00,0.0009
1621.00,0.0010
1608.00,0.0032
1595.00,0.0045
1582.00,0.0034
1569.00,0.0009
1556.00,0.0008
1543.00,0.0013
1530.00,0.0010
1517.00,0.0009
1504.00,0.0018
1491.00,0.0209
1478.00,0.0025
1465.00,0.0026
1452.00,0.0217
1439.00,0.0085
1426.00,0.0026
1413.00,0.0018
1400.00,0.0016
1387.00,0.0028
1374.00,0.0046
1361.00,0.0044
1348.00,0.0040
1335.00,0.0037
1322.00,0.0040
1309.00,0.0040
1296.00,0.0034
1283.00,0.0031
1270.00,0.0025
1257.00,0.0021
1244.00,0.0022
1231.00,0.0023
1218.00,0.0024
1205.00,0.0030
1192.00,0.0038
1179.00,0.0049
1166.00,0.0030
1153.00,0.0051
1140.00,0.0021
1127.00,0.0022
1114.00,0.0032
1101.00,0.0033
1088.00,0.0039
1075.00,0.0062
1062.00,0.0063
1049.00,0.0044
1036.00,0.0061
1023.00,0.0100
1010.00,0.0056
997.00,0.0045
984.00,0.0051
971.00,0.0048
958.00,0.0045
945.00,0.0043
932.00,0.0033
919.00,0.0039
906.00,0.0091
893.00,0.0035
880.00,0.0025
867.00,0.0022
854.00,0.0024
841.00,0.0047
828.00,0.0021
815.00,0.0021
802.00,0.0024
789.00,0.0046
776.00,0.0114
763.00,0.0293
750.00,0.0377
737.00,0.0167
724.00,0.0048
711.00,0.0106
698.00,0.0960
685.00,0.0393
672.00,0.0178
659.00,0.0106
646.00,0.0066
633.00,0.0072
620.00,0.0088
607.00,0.0067
594.00,0.0076
581.00,0.0101
568.00,0.0166
555.00,0.0237
542.00,0.0376
529.00,0.0284
516.00,0.0143
503.00,0.0096
490.00,0.0077
477.00,0.0070
464.00,0.0071
451.00,0.0056
438.00,0.0063
425.00,0.0038
412.00,0.0049
400.00,0.0084