File: FTIR/Olivia/2025_08_01_1CBN_3PVP10_drybatchpowder_scan5.csv
Created as New Dataset,Sample 1016 By YargerLab Date Friday, August 01 2025
cm-1,A
4000.00,0.0060
3987.00,0.0060
3974.00,0.0060
3961.00,0.0060
3948.00,0.0060
3935.00,0.0061
3922.00,0.0061
3909.00,0.0060
3896.00,0.0061
3883.00,0.0061
3870.00,0.0061
3857.00,0.0061
3844.00,0.0061
3831.00,0.0060
3818.00,0.0061
3805.00,0.0060
3792.00,0.0059
3779.00,0.0059
3766.00,0.0060
3753.00,0.0062
3740.00,0.0062
3727.00,0.0059
3714.00,0.0059
3701.00,0.0058
3688.00,0.0060
3675.00,0.0061
3662.00,0.0060
3649.00,0.0066
3636.00,0.0066
3623.00,0.0072
3610.00,0.0078
3597.00,0.0084
3584.00,0.0091
3571.00,0.0099
3558.00,0.0108
3545.00,0.0120
3532.00,0.0129
3519.00,0.0138
3506.00,0.0146
3493.00,0.0155
3480.00,0.0166
3467.00,0.0181
3454.00,0.0197
3441.00,0.0216
3428.00,0.0240
3415.00,0.0269
3402.00,0.0284
3389.00,0.0275
3376.00,0.0257
3363.00,0.0239
3350.00,0.0227
3337.00,0.0221
3324.00,0.0221
3311.00,0.0226
3298.00,0.0233
3285.00,0.0243
3272.00,0.0250
3259.00,0.0258
3246.00,0.0263
3233.00,0.0262
3220.00,0.0254
3207.00,0.0238
3194.00,0.0218
3181.00,0.0199
3168.00,0.0179
3155.00,0.0159
3142.00,0.0144
3129.00,0.0132
3116.00,0.0123
3103.00,0.0113
3090.00,0.0111
3077.00,0.0110
3064.00,0.0106
3051.00,0.0106
3038.00,0.0108
3025.00,0.0106
3012.00,0.0103
2999.00,0.0130
2986.00,0.0186
2973.00,0.0257
2960.00,0.0331
2947.00,0.0270
2934.00,0.0393
2921.00,0.0425
2908.00,0.0281
2895.00,0.0222
2882.00,0.0203
2869.00,0.0242
2856.00,0.0323
2843.00,0.0186
2830.00,0.0126
2817.00,0.0105
2804.00,0.0097
2791.00,0.0090
2778.00,0.0086
2765.00,0.0084
2752.00,0.0084
2739.00,0.0086
2726.00,0.0088
2713.00,0.0085
2700.00,0.0083
2687.00,0.0081
2674.00,0.0080
2661.00,0.0084
2648.00,0.0085
2635.00,0.0083
2622.00,0.0079
2609.00,0.0079
2596.00,0.0080
2583.00,0.0080
2570.00,0.0078
2557.00,0.0076
2544.00,0.0075
2531.00,0.0075
2518.00,0.0072
2505.00,0.0070
2492.00,0.0070
2479.00,0.0068
2466.00,0.0067
2453.00,0.0069
2440.00,0.0067
2427.00,0.0066
2414.00,0.0065
2401.00,0.0065
2388.00,0.0064
2375.00,0.0063
2362.00,0.0063
2349.00,0.0061
2336.00,0.0064
2323.00,0.0070
2310.00,0.0064
2297.00,0.0068
2284.00,0.0071
2271.00,0.0068
2258.00,0.0065
2245.00,0.0065
2232.00,0.0066
2219.00,0.0067
2206.00,0.0064
2193.00,0.0066
2180.00,0.0063
2167.00,0.0073
2154.00,0.0044
2141.00,0.0051
2128.00,0.0054
2115.00,0.0061
2102.00,0.0060
2089.00,0.0058
2076.00,0.0062
2063.00,0.0058
2050.00,0.0061
2037.00,0.0056
2024.00,0.0051
2011.00,0.0053
1998.00,0.0050
1985.00,0.0061
1972.00,0.0049
1959.00,0.0047
1946.00,0.0049
1933.00,0.0051
1920.00,0.0054
1907.00,0.0061
1894.00,0.0059
1881.00,0.0055
1868.00,0.0054
1855.00,0.0056
1842.00,0.0056
1829.00,0.0053
1816.00,0.0053
1803.00,0.0056
1790.00,0.0056
1777.00,0.0059
1764.00,0.0058
1751.00,0.0057
1738.00,0.0059
1725.00,0.0071
1712.00,0.0086
1699.00,0.0136
1686.00,0.0290
1673.00,0.0490
1660.00,0.0642
1647.00,0.0644
1634.00,0.0515
1621.00,0.0688
1608.00,0.0465
1595.00,0.0260
1582.00,0.0437
1569.00,0.0262
1556.00,0.0143
1543.00,0.0126
1530.00,0.0116
1517.00,0.0135
1504.00,0.0189
1491.00,0.0281
1478.00,0.0166
1465.00,0.0408
1452.00,0.0353
1439.00,0.0531
1426.00,0.0622
1413.00,0.0431
1400.00,0.0520
1387.00,0.0358
1374.00,0.0318
1361.00,0.0411
1348.00,0.0305
1335.00,0.0243
1322.00,0.0292
1309.00,0.0282
1296.00,0.0486
1283.00,0.0640
1270.00,0.0493
1257.00,0.0317
1244.00,0.0359
1231.00,0.0455
1218.00,0.0377
1205.00,0.0306
1192.00,0.0437
1179.00,0.0245
1166.00,0.0247
1153.00,0.0440
1140.00,0.0213
1127.00,0.0483
1114.00,0.0248
1101.00,0.0322
1088.00,0.0191
1075.00,0.0196
1062.00,0.0300
1049.00,0.0632
1036.00,0.0321
1023.00,0.0449
1010.00,0.0230
997.00,0.0266
984.00,0.0183
971.00,0.0170
958.00,0.0160
945.00,0.0149
932.00,0.0200
919.00,0.0192
906.00,0.0157
893.00,0.0197
880.00,0.0173
867.00,0.0358
854.00,0.0293
841.00,0.0289
828.00,0.0287
815.00,0.0444
802.00,0.0177
789.00,0.0173
776.00,0.0208
763.00,0.0211
750.00,0.0243
737.00,0.0353
724.00,0.0310
711.00,0.0302
698.00,0.0327
685.00,0.0351
672.00,0.0413
659.00,0.0452
646.00,0.0450
633.00,0.0423
620.00,0.0448
607.00,0.0449
594.00,0.0506
581.00,0.0537
568.00,0.0531
555.00,0.0534
542.00,0.0534
529.00,0.0540
516.00,0.0472
503.00,0.0472
490.00,0.0478
477.00,0.0459
464.00,0.0455
451.00,0.0441
438.00,0.0432
425.00,0.0404
412.00,0.0417
400.00,0.0397