File: FTIR/Olivia/2025_06_18_CBD_SorbicAcid_Cocrystal_Slurry_Vial_scan3.csv
Created as New Dataset,Sample 714 By YargerLab Date Wednesday, June 18 2025
cm-1,A
4000.00,0.0017
3987.00,0.0017
3974.00,0.0017
3961.00,0.0017
3948.00,0.0016
3935.00,0.0016
3922.00,0.0016
3909.00,0.0016
3896.00,0.0015
3883.00,0.0015
3870.00,0.0016
3857.00,0.0016
3844.00,0.0015
3831.00,0.0015
3818.00,0.0015
3805.00,0.0015
3792.00,0.0015
3779.00,0.0015
3766.00,0.0015
3753.00,0.0014
3740.00,0.0014
3727.00,0.0013
3714.00,0.0013
3701.00,0.0013
3688.00,0.0012
3675.00,0.0011
3662.00,0.0011
3649.00,0.0010
3636.00,0.0011
3623.00,0.0012
3610.00,0.0013
3597.00,0.0013
3584.00,0.0014
3571.00,0.0015
3558.00,0.0017
3545.00,0.0019
3532.00,0.0022
3519.00,0.0028
3506.00,0.0035
3493.00,0.0048
3480.00,0.0069
3467.00,0.0109
3454.00,0.0246
3441.00,0.0244
3428.00,0.0135
3415.00,0.0091
3402.00,0.0074
3389.00,0.0070
3376.00,0.0068
3363.00,0.0068
3350.00,0.0071
3337.00,0.0074
3324.00,0.0077
3311.00,0.0083
3298.00,0.0088
3285.00,0.0097
3272.00,0.0104
3259.00,0.0114
3246.00,0.0121
3233.00,0.0129
3220.00,0.0138
3207.00,0.0146
3194.00,0.0154
3181.00,0.0160
3168.00,0.0163
3155.00,0.0166
3142.00,0.0174
3129.00,0.0181
3116.00,0.0186
3103.00,0.0194
3090.00,0.0198
3077.00,0.0206
3064.00,0.0206
3051.00,0.0182
3038.00,0.0175
3025.00,0.0167
3012.00,0.0159
2999.00,0.0157
2986.00,0.0176
2973.00,0.0203
2960.00,0.0262
2947.00,0.0278
2934.00,0.0353
2921.00,0.0440
2908.00,0.0311
2895.00,0.0238
2882.00,0.0222
2869.00,0.0253
2856.00,0.0278
2843.00,0.0204
2830.00,0.0183
2817.00,0.0133
2804.00,0.0120
2791.00,0.0116
2778.00,0.0117
2765.00,0.0122
2752.00,0.0125
2739.00,0.0126
2726.00,0.0130
2713.00,0.0130
2700.00,0.0131
2687.00,0.0132
2674.00,0.0131
2661.00,0.0135
2648.00,0.0133
2635.00,0.0131
2622.00,0.0128
2609.00,0.0125
2596.00,0.0120
2583.00,0.0115
2570.00,0.0113
2557.00,0.0116
2544.00,0.0112
2531.00,0.0106
2518.00,0.0102
2505.00,0.0096
2492.00,0.0094
2479.00,0.0093
2466.00,0.0092
2453.00,0.0095
2440.00,0.0094
2427.00,0.0093
2414.00,0.0088
2401.00,0.0080
2388.00,0.0073
2375.00,0.0066
2362.00,0.0061
2349.00,0.0057
2336.00,0.0055
2323.00,0.0063
2310.00,0.0051
2297.00,0.0050
2284.00,0.0052
2271.00,0.0045
2258.00,0.0041
2245.00,0.0037
2232.00,0.0035
2219.00,0.0034
2206.00,0.0033
2193.00,0.0036
2180.00,0.0030
2167.00,0.0041
2154.00,-0.0003
2141.00,0.0009
2128.00,0.0006
2115.00,0.0021
2102.00,0.0019
2089.00,0.0018
2076.00,0.0019
2063.00,0.0014
2050.00,0.0026
2037.00,0.0019
2024.00,0.0013
2011.00,0.0016
1998.00,0.0010
1985.00,0.0019
1972.00,0.0004
1959.00,0.0003
1946.00,0.0009
1933.00,0.0009
1920.00,0.0012
1907.00,0.0012
1894.00,0.0011
1881.00,0.0013
1868.00,0.0014
1855.00,0.0014
1842.00,0.0014
1829.00,0.0014
1816.00,0.0012
1803.00,0.0018
1790.00,0.0022
1777.00,0.0024
1764.00,0.0024
1751.00,0.0024
1738.00,0.0026
1725.00,0.0030
1712.00,0.0035
1699.00,0.0039
1686.00,0.0044
1673.00,0.0061
1660.00,0.0112
1647.00,0.0278
1634.00,0.0632
1621.00,0.0404
1608.00,0.0250
1595.00,0.0313
1582.00,0.0654
1569.00,0.0667
1556.00,0.0422
1543.00,0.0268
1530.00,0.0232
1517.00,0.0195
1504.00,0.0128
1491.00,0.0111
1478.00,0.0141
1465.00,0.0248
1452.00,0.0526
1439.00,0.0660
1426.00,0.0382
1413.00,0.0323
1400.00,0.0353
1387.00,0.0298
1374.00,0.0380
1361.00,0.0342
1348.00,0.0442
1335.00,0.0410
1322.00,0.0491
1309.00,0.0363
1296.00,0.0332
1283.00,0.0486
1270.00,0.0286
1257.00,0.0226
1244.00,0.0421
1231.00,0.0263
1218.00,0.0261
1205.00,0.0427
1192.00,0.0183
1179.00,0.0217
1166.00,0.0285
1153.00,0.0217
1140.00,0.0129
1127.00,0.0084
1114.00,0.0080
1101.00,0.0149
1088.00,0.0102
1075.00,0.0095
1062.00,0.0158
1049.00,0.0289
1036.00,0.0455
1023.00,0.0279
1010.00,0.0159
997.00,0.0183
984.00,0.0139
971.00,0.0110
958.00,0.0178
945.00,0.0151
932.00,0.0133
919.00,0.0204
906.00,0.0201
893.00,0.0311
880.00,0.0348
867.00,0.0292
854.00,0.0440
841.00,0.0394
828.00,0.0295
815.00,0.0176
802.00,0.0303
789.00,0.0242
776.00,0.0206
763.00,0.0210
750.00,0.0164
737.00,0.0210
724.00,0.0182
711.00,0.0176
698.00,0.0172
685.00,0.0216
672.00,0.0241
659.00,0.0167
646.00,0.0165
633.00,0.0182
620.00,0.0158
607.00,0.0176
594.00,0.0170
581.00,0.0243
568.00,0.0127
555.00,0.0237
542.00,0.0205
529.00,0.0216
516.00,0.0158
503.00,0.0240
490.00,0.0466
477.00,0.0477
464.00,0.0457
451.00,0.0323
438.00,0.0284
425.00,0.0198
412.00,0.0176
400.00,0.0193