File: FTIR/Olivia/2025_08_04_1CBN_3PVP40kDa_MortPest_powder_scan1.csv
Created as New Dataset,Sample 1048 By YargerLab Date Monday, August 04 2025
cm-1,A
4000.00,0.0032
3987.00,0.0032
3974.00,0.0031
3961.00,0.0031
3948.00,0.0031
3935.00,0.0031
3922.00,0.0031
3909.00,0.0031
3896.00,0.0030
3883.00,0.0030
3870.00,0.0030
3857.00,0.0030
3844.00,0.0030
3831.00,0.0031
3818.00,0.0030
3805.00,0.0031
3792.00,0.0031
3779.00,0.0032
3766.00,0.0031
3753.00,0.0031
3740.00,0.0030
3727.00,0.0030
3714.00,0.0030
3701.00,0.0031
3688.00,0.0032
3675.00,0.0033
3662.00,0.0037
3649.00,0.0039
3636.00,0.0045
3623.00,0.0050
3610.00,0.0056
3597.00,0.0066
3584.00,0.0076
3571.00,0.0087
3558.00,0.0100
3545.00,0.0111
3532.00,0.0121
3519.00,0.0130
3506.00,0.0136
3493.00,0.0143
3480.00,0.0150
3467.00,0.0157
3454.00,0.0164
3441.00,0.0171
3428.00,0.0178
3415.00,0.0187
3402.00,0.0191
3389.00,0.0187
3376.00,0.0178
3363.00,0.0170
3350.00,0.0161
3337.00,0.0157
3324.00,0.0155
3311.00,0.0153
3298.00,0.0154
3285.00,0.0156
3272.00,0.0153
3259.00,0.0154
3246.00,0.0150
3233.00,0.0146
3220.00,0.0139
3207.00,0.0131
3194.00,0.0122
3181.00,0.0112
3168.00,0.0103
3155.00,0.0094
3142.00,0.0087
3129.00,0.0081
3116.00,0.0077
3103.00,0.0072
3090.00,0.0069
3077.00,0.0067
3064.00,0.0065
3051.00,0.0063
3038.00,0.0063
3025.00,0.0063
3012.00,0.0064
2999.00,0.0082
2986.00,0.0112
2973.00,0.0146
2960.00,0.0183
2947.00,0.0170
2934.00,0.0203
2921.00,0.0218
2908.00,0.0165
2895.00,0.0146
2882.00,0.0140
2869.00,0.0148
2856.00,0.0167
2843.00,0.0111
2830.00,0.0082
2817.00,0.0068
2804.00,0.0062
2791.00,0.0058
2778.00,0.0056
2765.00,0.0054
2752.00,0.0054
2739.00,0.0055
2726.00,0.0055
2713.00,0.0053
2700.00,0.0052
2687.00,0.0051
2674.00,0.0051
2661.00,0.0054
2648.00,0.0055
2635.00,0.0055
2622.00,0.0052
2609.00,0.0051
2596.00,0.0052
2583.00,0.0052
2570.00,0.0050
2557.00,0.0050
2544.00,0.0048
2531.00,0.0048
2518.00,0.0047
2505.00,0.0046
2492.00,0.0046
2479.00,0.0045
2466.00,0.0046
2453.00,0.0046
2440.00,0.0045
2427.00,0.0045
2414.00,0.0044
2401.00,0.0043
2388.00,0.0042
2375.00,0.0042
2362.00,0.0043
2349.00,0.0044
2336.00,0.0047
2323.00,0.0056
2310.00,0.0049
2297.00,0.0051
2284.00,0.0055
2271.00,0.0051
2258.00,0.0049
2245.00,0.0048
2232.00,0.0048
2219.00,0.0049
2206.00,0.0048
2193.00,0.0049
2180.00,0.0049
2167.00,0.0054
2154.00,0.0031
2141.00,0.0034
2128.00,0.0036
2115.00,0.0048
2102.00,0.0046
2089.00,0.0044
2076.00,0.0047
2063.00,0.0046
2050.00,0.0050
2037.00,0.0045
2024.00,0.0038
2011.00,0.0035
1998.00,0.0038
1985.00,0.0042
1972.00,0.0031
1959.00,0.0031
1946.00,0.0034
1933.00,0.0035
1920.00,0.0038
1907.00,0.0040
1894.00,0.0039
1881.00,0.0038
1868.00,0.0038
1855.00,0.0040
1842.00,0.0040
1829.00,0.0039
1816.00,0.0037
1803.00,0.0040
1790.00,0.0041
1777.00,0.0042
1764.00,0.0043
1751.00,0.0046
1738.00,0.0050
1725.00,0.0060
1712.00,0.0080
1699.00,0.0148
1686.00,0.0336
1673.00,0.0576
1660.00,0.0766
1647.00,0.0824
1634.00,0.0656
1621.00,0.0546
1608.00,0.0372
1595.00,0.0236
1582.00,0.0254
1569.00,0.0177
1556.00,0.0128
1543.00,0.0113
1530.00,0.0106
1517.00,0.0112
1504.00,0.0156
1491.00,0.0241
1478.00,0.0145
1465.00,0.0358
1452.00,0.0307
1439.00,0.0474
1426.00,0.0563
1413.00,0.0393
1400.00,0.0292
1387.00,0.0235
1374.00,0.0265
1361.00,0.0256
1348.00,0.0199
1335.00,0.0183
1322.00,0.0257
1309.00,0.0249
1296.00,0.0432
1283.00,0.0646
1270.00,0.0583
1257.00,0.0374
1244.00,0.0321
1231.00,0.0374
1218.00,0.0342
1205.00,0.0281
1192.00,0.0300
1179.00,0.0235
1166.00,0.0247
1153.00,0.0274
1140.00,0.0185
1127.00,0.0273
1114.00,0.0204
1101.00,0.0230
1088.00,0.0187
1075.00,0.0194
1062.00,0.0222
1049.00,0.0321
1036.00,0.0227
1023.00,0.0281
1010.00,0.0204
997.00,0.0218
984.00,0.0171
971.00,0.0157
958.00,0.0150
945.00,0.0146
932.00,0.0181
919.00,0.0165
906.00,0.0152
893.00,0.0180
880.00,0.0161
867.00,0.0230
854.00,0.0240
841.00,0.0263
828.00,0.0238
815.00,0.0283
802.00,0.0189
789.00,0.0192
776.00,0.0211
763.00,0.0233
750.00,0.0277
737.00,0.0349
724.00,0.0327
711.00,0.0317
698.00,0.0334
685.00,0.0366
672.00,0.0413
659.00,0.0473
646.00,0.0530
633.00,0.0499
620.00,0.0494
607.00,0.0495
594.00,0.0534
581.00,0.0589
568.00,0.0618
555.00,0.0596
542.00,0.0586
529.00,0.0584
516.00,0.0557
503.00,0.0554
490.00,0.0556
477.00,0.0562
464.00,0.0551
451.00,0.0541
438.00,0.0533
425.00,0.0530
412.00,0.0507
400.00,0.0497