File: FTIR/Olivia/2025_08_01_Polystyrene_Std_scan2.csv
Created as New Dataset,Sample 1010 By YargerLab Date Friday, August 01 2025
cm-1,A
4000.00,0.0004
3987.00,0.0004
3974.00,0.0004
3961.00,0.0004
3948.00,0.0004
3935.00,0.0004
3922.00,0.0004
3909.00,0.0003
3896.00,0.0003
3883.00,0.0002
3870.00,0.0002
3857.00,0.0002
3844.00,0.0003
3831.00,0.0003
3818.00,0.0002
3805.00,0.0002
3792.00,0.0004
3779.00,0.0004
3766.00,0.0003
3753.00,0.0001
3740.00,0.0001
3727.00,0.0002
3714.00,0.0002
3701.00,0.0003
3688.00,0.0001
3675.00,0.0000
3662.00,0.0004
3649.00,0.0000
3636.00,0.0002
3623.00,0.0002
3610.00,0.0001
3597.00,0.0002
3584.00,0.0002
3571.00,0.0003
3558.00,0.0004
3545.00,0.0003
3532.00,0.0004
3519.00,0.0004
3506.00,0.0004
3493.00,0.0004
3480.00,0.0005
3467.00,0.0006
3454.00,0.0005
3441.00,0.0005
3428.00,0.0005
3415.00,0.0005
3402.00,0.0005
3389.00,0.0005
3376.00,0.0005
3363.00,0.0005
3350.00,0.0005
3337.00,0.0005
3324.00,0.0006
3311.00,0.0005
3298.00,0.0005
3285.00,0.0004
3272.00,0.0005
3259.00,0.0005
3246.00,0.0005
3233.00,0.0004
3220.00,0.0003
3207.00,0.0005
3194.00,0.0004
3181.00,0.0004
3168.00,0.0004
3155.00,0.0004
3142.00,0.0004
3129.00,0.0005
3116.00,0.0006
3103.00,0.0014
3090.00,0.0019
3077.00,0.0031
3064.00,0.0043
3051.00,0.0033
3038.00,0.0034
3025.00,0.0102
3012.00,0.0027
2999.00,0.0026
2986.00,0.0012
2973.00,0.0013
2960.00,0.0019
2947.00,0.0038
2934.00,0.0080
2921.00,0.0116
2908.00,0.0089
2895.00,0.0051
2882.00,0.0034
2869.00,0.0026
2856.00,0.0039
2843.00,0.0041
2830.00,0.0011
2817.00,0.0008
2804.00,0.0007
2791.00,0.0006
2778.00,0.0006
2765.00,0.0005
2752.00,0.0005
2739.00,0.0004
2726.00,0.0005
2713.00,0.0005
2700.00,0.0005
2687.00,0.0005
2674.00,0.0005
2661.00,0.0008
2648.00,0.0009
2635.00,0.0010
2622.00,0.0009
2609.00,0.0008
2596.00,0.0007
2583.00,0.0007
2570.00,0.0004
2557.00,0.0004
2544.00,0.0005
2531.00,0.0002
2518.00,0.0003
2505.00,0.0003
2492.00,0.0003
2479.00,0.0002
2466.00,0.0002
2453.00,0.0003
2440.00,0.0002
2427.00,0.0001
2414.00,0.0000
2401.00,-0.0001
2388.00,-0.0002
2375.00,-0.0002
2362.00,-0.0001
2349.00,0.0001
2336.00,0.0003
2323.00,0.0014
2310.00,0.0007
2297.00,0.0008
2284.00,0.0010
2271.00,0.0007
2258.00,0.0005
2245.00,0.0004
2232.00,0.0003
2219.00,0.0004
2206.00,0.0003
2193.00,0.0004
2180.00,-0.0002
2167.00,0.0009
2154.00,-0.0023
2141.00,-0.0012
2128.00,-0.0011
2115.00,-0.0000
2102.00,-0.0001
2089.00,-0.0002
2076.00,0.0000
2063.00,0.0000
2050.00,0.0007
2037.00,0.0002
2024.00,-0.0010
2011.00,-0.0005
1998.00,-0.0005
1985.00,0.0004
1972.00,-0.0011
1959.00,-0.0004
1946.00,0.0004
1933.00,-0.0002
1920.00,-0.0005
1907.00,-0.0003
1894.00,-0.0001
1881.00,0.0005
1868.00,0.0008
1855.00,0.0001
1842.00,-0.0002
1829.00,-0.0001
1816.00,0.0003
1803.00,0.0011
1790.00,0.0005
1777.00,0.0003
1764.00,0.0005
1751.00,0.0010
1738.00,0.0012
1725.00,0.0008
1712.00,0.0007
1699.00,0.0007
1686.00,0.0009
1673.00,0.0013
1660.00,0.0014
1647.00,0.0010
1634.00,0.0008
1621.00,0.0010
1608.00,0.0036
1595.00,0.0051
1582.00,0.0039
1569.00,0.0008
1556.00,0.0007
1543.00,0.0013
1530.00,0.0009
1517.00,0.0008
1504.00,0.0020
1491.00,0.0249
1478.00,0.0027
1465.00,0.0028
1452.00,0.0259
1439.00,0.0096
1426.00,0.0024
1413.00,0.0017
1400.00,0.0017
1387.00,0.0032
1374.00,0.0053
1361.00,0.0049
1348.00,0.0044
1335.00,0.0039
1322.00,0.0042
1309.00,0.0044
1296.00,0.0036
1283.00,0.0032
1270.00,0.0024
1257.00,0.0021
1244.00,0.0022
1231.00,0.0022
1218.00,0.0022
1205.00,0.0031
1192.00,0.0040
1179.00,0.0052
1166.00,0.0029
1153.00,0.0054
1140.00,0.0020
1127.00,0.0018
1114.00,0.0027
1101.00,0.0029
1088.00,0.0037
1075.00,0.0066
1062.00,0.0065
1049.00,0.0041
1036.00,0.0059
1023.00,0.0107
1010.00,0.0053
997.00,0.0043
984.00,0.0050
971.00,0.0051
958.00,0.0048
945.00,0.0046
932.00,0.0034
919.00,0.0039
906.00,0.0101
893.00,0.0033
880.00,0.0023
867.00,0.0018
854.00,0.0024
841.00,0.0050
828.00,0.0020
815.00,0.0020
802.00,0.0024
789.00,0.0051
776.00,0.0131
763.00,0.0341
750.00,0.0443
737.00,0.0189
724.00,0.0051
711.00,0.0119
698.00,0.1133
685.00,0.0457
672.00,0.0197
659.00,0.0114
646.00,0.0067
633.00,0.0075
620.00,0.0092
607.00,0.0067
594.00,0.0077
581.00,0.0105
568.00,0.0184
555.00,0.0271
542.00,0.0434
529.00,0.0318
516.00,0.0155
503.00,0.0100
490.00,0.0075
477.00,0.0069
464.00,0.0062
451.00,0.0053
438.00,0.0054
425.00,0.0046
412.00,0.0044
400.00,0.0026