File: FTIR/Olivia/2025_08_04_1CBN_3PVP40kDa_MortPest_powder_scan3.csv
Created as New Dataset,Sample 1050 By YargerLab Date Monday, August 04 2025
cm-1,A
4000.00,0.0067
3987.00,0.0067
3974.00,0.0067
3961.00,0.0067
3948.00,0.0066
3935.00,0.0067
3922.00,0.0067
3909.00,0.0066
3896.00,0.0066
3883.00,0.0066
3870.00,0.0065
3857.00,0.0066
3844.00,0.0066
3831.00,0.0066
3818.00,0.0067
3805.00,0.0066
3792.00,0.0066
3779.00,0.0066
3766.00,0.0067
3753.00,0.0067
3740.00,0.0066
3727.00,0.0065
3714.00,0.0065
3701.00,0.0065
3688.00,0.0066
3675.00,0.0069
3662.00,0.0071
3649.00,0.0076
3636.00,0.0081
3623.00,0.0088
3610.00,0.0097
3597.00,0.0108
3584.00,0.0119
3571.00,0.0133
3558.00,0.0148
3545.00,0.0163
3532.00,0.0176
3519.00,0.0188
3506.00,0.0198
3493.00,0.0208
3480.00,0.0219
3467.00,0.0233
3454.00,0.0247
3441.00,0.0263
3428.00,0.0282
3415.00,0.0304
3402.00,0.0315
3389.00,0.0310
3376.00,0.0292
3363.00,0.0276
3350.00,0.0261
3337.00,0.0254
3324.00,0.0252
3311.00,0.0252
3298.00,0.0257
3285.00,0.0263
3272.00,0.0266
3259.00,0.0271
3246.00,0.0272
3233.00,0.0268
3220.00,0.0261
3207.00,0.0246
3194.00,0.0229
3181.00,0.0210
3168.00,0.0193
3155.00,0.0175
3142.00,0.0160
3129.00,0.0149
3116.00,0.0140
3103.00,0.0130
3090.00,0.0126
3077.00,0.0123
3064.00,0.0120
3051.00,0.0120
3038.00,0.0120
3025.00,0.0119
3012.00,0.0118
2999.00,0.0147
2986.00,0.0199
2973.00,0.0269
2960.00,0.0341
2947.00,0.0295
2934.00,0.0391
2921.00,0.0430
2908.00,0.0308
2895.00,0.0257
2882.00,0.0239
2869.00,0.0267
2856.00,0.0335
2843.00,0.0212
2830.00,0.0151
2817.00,0.0126
2804.00,0.0115
2791.00,0.0108
2778.00,0.0104
2765.00,0.0101
2752.00,0.0101
2739.00,0.0103
2726.00,0.0104
2713.00,0.0101
2700.00,0.0099
2687.00,0.0096
2674.00,0.0096
2661.00,0.0100
2648.00,0.0101
2635.00,0.0099
2622.00,0.0096
2609.00,0.0095
2596.00,0.0095
2583.00,0.0096
2570.00,0.0093
2557.00,0.0092
2544.00,0.0091
2531.00,0.0089
2518.00,0.0087
2505.00,0.0086
2492.00,0.0085
2479.00,0.0084
2466.00,0.0084
2453.00,0.0084
2440.00,0.0083
2427.00,0.0082
2414.00,0.0082
2401.00,0.0081
2388.00,0.0081
2375.00,0.0078
2362.00,0.0078
2349.00,0.0080
2336.00,0.0083
2323.00,0.0093
2310.00,0.0086
2297.00,0.0088
2284.00,0.0092
2271.00,0.0087
2258.00,0.0085
2245.00,0.0082
2232.00,0.0083
2219.00,0.0084
2206.00,0.0084
2193.00,0.0084
2180.00,0.0085
2167.00,0.0090
2154.00,0.0060
2141.00,0.0068
2128.00,0.0070
2115.00,0.0082
2102.00,0.0080
2089.00,0.0078
2076.00,0.0082
2063.00,0.0076
2050.00,0.0082
2037.00,0.0079
2024.00,0.0070
2011.00,0.0071
1998.00,0.0069
1985.00,0.0077
1972.00,0.0063
1959.00,0.0062
1946.00,0.0068
1933.00,0.0068
1920.00,0.0070
1907.00,0.0077
1894.00,0.0075
1881.00,0.0071
1868.00,0.0072
1855.00,0.0073
1842.00,0.0075
1829.00,0.0072
1816.00,0.0071
1803.00,0.0075
1790.00,0.0076
1777.00,0.0079
1764.00,0.0080
1751.00,0.0084
1738.00,0.0087
1725.00,0.0106
1712.00,0.0135
1699.00,0.0220
1686.00,0.0474
1673.00,0.0782
1660.00,0.1034
1647.00,0.1113
1634.00,0.0882
1621.00,0.0904
1608.00,0.0621
1595.00,0.0365
1582.00,0.0484
1569.00,0.0316
1556.00,0.0201
1543.00,0.0173
1530.00,0.0164
1517.00,0.0183
1504.00,0.0251
1491.00,0.0387
1478.00,0.0225
1465.00,0.0560
1452.00,0.0482
1439.00,0.0737
1426.00,0.0889
1413.00,0.0616
1400.00,0.0570
1387.00,0.0428
1374.00,0.0431
1361.00,0.0477
1348.00,0.0369
1335.00,0.0315
1322.00,0.0410
1309.00,0.0395
1296.00,0.0688
1283.00,0.0988
1270.00,0.0832
1257.00,0.0530
1244.00,0.0506
1231.00,0.0622
1218.00,0.0532
1205.00,0.0431
1192.00,0.0541
1179.00,0.0355
1166.00,0.0361
1153.00,0.0502
1140.00,0.0283
1127.00,0.0543
1114.00,0.0336
1101.00,0.0407
1088.00,0.0282
1075.00,0.0289
1062.00,0.0373
1049.00,0.0685
1036.00,0.0410
1023.00,0.0554
1010.00,0.0331
997.00,0.0370
984.00,0.0265
971.00,0.0243
958.00,0.0227
945.00,0.0216
932.00,0.0280
919.00,0.0262
906.00,0.0223
893.00,0.0278
880.00,0.0245
867.00,0.0433
854.00,0.0396
841.00,0.0416
828.00,0.0397
815.00,0.0552
802.00,0.0278
789.00,0.0276
776.00,0.0315
763.00,0.0337
750.00,0.0394
737.00,0.0531
724.00,0.0488
711.00,0.0474
698.00,0.0508
685.00,0.0548
672.00,0.0636
659.00,0.0711
646.00,0.0754
633.00,0.0704
620.00,0.0723
607.00,0.0723
594.00,0.0805
581.00,0.0868
568.00,0.0886
555.00,0.0873
542.00,0.0875
529.00,0.0874
516.00,0.0790
503.00,0.0794
490.00,0.0801
477.00,0.0790
464.00,0.0779
451.00,0.0762
438.00,0.0734
425.00,0.0705
412.00,0.0699
400.00,0.0676