File: FTIR/Olivia/2025_07_29_Polystyrene_Std_scan2.csv
Created as New Dataset,Sample 952 By YargerLab Date Tuesday, July 29 2025
cm-1,A
4000.00,0.0013
3987.00,0.0012
3974.00,0.0011
3961.00,0.0011
3948.00,0.0012
3935.00,0.0012
3922.00,0.0011
3909.00,0.0012
3896.00,0.0011
3883.00,0.0011
3870.00,0.0011
3857.00,0.0011
3844.00,0.0012
3831.00,0.0011
3818.00,0.0011
3805.00,0.0011
3792.00,0.0012
3779.00,0.0012
3766.00,0.0012
3753.00,0.0011
3740.00,0.0010
3727.00,0.0011
3714.00,0.0011
3701.00,0.0012
3688.00,0.0011
3675.00,0.0011
3662.00,0.0012
3649.00,0.0012
3636.00,0.0012
3623.00,0.0012
3610.00,0.0012
3597.00,0.0013
3584.00,0.0013
3571.00,0.0015
3558.00,0.0015
3545.00,0.0016
3532.00,0.0018
3519.00,0.0019
3506.00,0.0019
3493.00,0.0020
3480.00,0.0020
3467.00,0.0021
3454.00,0.0021
3441.00,0.0021
3428.00,0.0021
3415.00,0.0022
3402.00,0.0022
3389.00,0.0021
3376.00,0.0021
3363.00,0.0021
3350.00,0.0021
3337.00,0.0021
3324.00,0.0020
3311.00,0.0021
3298.00,0.0020
3285.00,0.0020
3272.00,0.0019
3259.00,0.0019
3246.00,0.0019
3233.00,0.0018
3220.00,0.0018
3207.00,0.0018
3194.00,0.0018
3181.00,0.0017
3168.00,0.0018
3155.00,0.0017
3142.00,0.0016
3129.00,0.0016
3116.00,0.0019
3103.00,0.0036
3090.00,0.0047
3077.00,0.0067
3064.00,0.0097
3051.00,0.0070
3038.00,0.0077
3025.00,0.0212
3012.00,0.0061
2999.00,0.0060
2986.00,0.0036
2973.00,0.0040
2960.00,0.0056
2947.00,0.0094
2934.00,0.0187
2921.00,0.0262
2908.00,0.0198
2895.00,0.0119
2882.00,0.0084
2869.00,0.0068
2856.00,0.0101
2843.00,0.0094
2830.00,0.0035
2817.00,0.0026
2804.00,0.0024
2791.00,0.0021
2778.00,0.0020
2765.00,0.0018
2752.00,0.0017
2739.00,0.0018
2726.00,0.0018
2713.00,0.0018
2700.00,0.0017
2687.00,0.0018
2674.00,0.0017
2661.00,0.0020
2648.00,0.0021
2635.00,0.0021
2622.00,0.0020
2609.00,0.0019
2596.00,0.0017
2583.00,0.0016
2570.00,0.0015
2557.00,0.0015
2544.00,0.0014
2531.00,0.0014
2518.00,0.0013
2505.00,0.0013
2492.00,0.0012
2479.00,0.0011
2466.00,0.0012
2453.00,0.0012
2440.00,0.0010
2427.00,0.0009
2414.00,0.0009
2401.00,0.0008
2388.00,0.0008
2375.00,0.0007
2362.00,0.0007
2349.00,0.0010
2336.00,0.0014
2323.00,0.0020
2310.00,0.0015
2297.00,0.0014
2284.00,0.0018
2271.00,0.0013
2258.00,0.0013
2245.00,0.0012
2232.00,0.0009
2219.00,0.0009
2206.00,0.0007
2193.00,0.0011
2180.00,0.0007
2167.00,0.0012
2154.00,-0.0013
2141.00,-0.0009
2128.00,-0.0004
2115.00,0.0007
2102.00,0.0006
2089.00,0.0005
2076.00,0.0007
2063.00,0.0005
2050.00,0.0012
2037.00,0.0009
2024.00,-0.0002
2011.00,0.0003
1998.00,0.0002
1985.00,0.0012
1972.00,0.0001
1959.00,0.0010
1946.00,0.0027
1933.00,0.0015
1920.00,0.0008
1907.00,0.0006
1894.00,0.0014
1881.00,0.0022
1868.00,0.0027
1855.00,0.0012
1842.00,0.0007
1829.00,0.0012
1816.00,0.0019
1803.00,0.0032
1790.00,0.0019
1777.00,0.0016
1764.00,0.0019
1751.00,0.0033
1738.00,0.0042
1725.00,0.0035
1712.00,0.0029
1699.00,0.0035
1686.00,0.0054
1673.00,0.0062
1660.00,0.0060
1647.00,0.0045
1634.00,0.0033
1621.00,0.0033
1608.00,0.0084
1595.00,0.0105
1582.00,0.0084
1569.00,0.0026
1556.00,0.0024
1543.00,0.0036
1530.00,0.0025
1517.00,0.0025
1504.00,0.0044
1491.00,0.0449
1478.00,0.0059
1465.00,0.0068
1452.00,0.0505
1439.00,0.0192
1426.00,0.0066
1413.00,0.0045
1400.00,0.0043
1387.00,0.0070
1374.00,0.0111
1361.00,0.0102
1348.00,0.0090
1335.00,0.0081
1322.00,0.0088
1309.00,0.0090
1296.00,0.0080
1283.00,0.0072
1270.00,0.0057
1257.00,0.0049
1244.00,0.0051
1231.00,0.0050
1218.00,0.0051
1205.00,0.0062
1192.00,0.0078
1179.00,0.0098
1166.00,0.0061
1153.00,0.0102
1140.00,0.0043
1127.00,0.0041
1114.00,0.0055
1101.00,0.0058
1088.00,0.0070
1075.00,0.0113
1062.00,0.0113
1049.00,0.0075
1036.00,0.0104
1023.00,0.0178
1010.00,0.0093
997.00,0.0073
984.00,0.0083
971.00,0.0082
958.00,0.0078
945.00,0.0075
932.00,0.0055
919.00,0.0065
906.00,0.0164
893.00,0.0058
880.00,0.0040
867.00,0.0036
854.00,0.0041
841.00,0.0084
828.00,0.0038
815.00,0.0036
802.00,0.0042
789.00,0.0082
776.00,0.0209
763.00,0.0551
750.00,0.0718
737.00,0.0304
724.00,0.0082
711.00,0.0187
698.00,0.1710
685.00,0.0659
672.00,0.0294
659.00,0.0174
646.00,0.0112
633.00,0.0123
620.00,0.0149
607.00,0.0114
594.00,0.0129
581.00,0.0167
568.00,0.0283
555.00,0.0404
542.00,0.0634
529.00,0.0446
516.00,0.0216
503.00,0.0137
490.00,0.0112
477.00,0.0095
464.00,0.0087
451.00,0.0071
438.00,0.0077
425.00,0.0074
412.00,0.0058
400.00,0.0066