File: FTIR/Olivia/2025_08_01_1CBN_3PVP10_drybatchpowder_scan3.csv
Created as New Dataset,Sample 1014 By YargerLab Date Friday, August 01 2025
cm-1,A
4000.00,0.0071
3987.00,0.0072
3974.00,0.0072
3961.00,0.0072
3948.00,0.0072
3935.00,0.0072
3922.00,0.0072
3909.00,0.0072
3896.00,0.0073
3883.00,0.0073
3870.00,0.0074
3857.00,0.0073
3844.00,0.0072
3831.00,0.0073
3818.00,0.0073
3805.00,0.0072
3792.00,0.0071
3779.00,0.0071
3766.00,0.0072
3753.00,0.0074
3740.00,0.0074
3727.00,0.0071
3714.00,0.0071
3701.00,0.0070
3688.00,0.0071
3675.00,0.0073
3662.00,0.0071
3649.00,0.0077
3636.00,0.0077
3623.00,0.0083
3610.00,0.0088
3597.00,0.0093
3584.00,0.0100
3571.00,0.0107
3558.00,0.0116
3545.00,0.0126
3532.00,0.0135
3519.00,0.0143
3506.00,0.0150
3493.00,0.0158
3480.00,0.0169
3467.00,0.0182
3454.00,0.0197
3441.00,0.0214
3428.00,0.0236
3415.00,0.0263
3402.00,0.0278
3389.00,0.0271
3376.00,0.0254
3363.00,0.0238
3350.00,0.0226
3337.00,0.0220
3324.00,0.0219
3311.00,0.0222
3298.00,0.0229
3285.00,0.0237
3272.00,0.0244
3259.00,0.0252
3246.00,0.0257
3233.00,0.0256
3220.00,0.0249
3207.00,0.0236
3194.00,0.0218
3181.00,0.0201
3168.00,0.0182
3155.00,0.0165
3142.00,0.0150
3129.00,0.0139
3116.00,0.0131
3103.00,0.0121
3090.00,0.0118
3077.00,0.0117
3064.00,0.0113
3051.00,0.0114
3038.00,0.0114
3025.00,0.0112
3012.00,0.0109
2999.00,0.0135
2986.00,0.0185
2973.00,0.0253
2960.00,0.0319
2947.00,0.0263
2934.00,0.0378
2921.00,0.0409
2908.00,0.0279
2895.00,0.0224
2882.00,0.0205
2869.00,0.0241
2856.00,0.0317
2843.00,0.0193
2830.00,0.0136
2817.00,0.0116
2804.00,0.0107
2791.00,0.0101
2778.00,0.0097
2765.00,0.0094
2752.00,0.0095
2739.00,0.0097
2726.00,0.0099
2713.00,0.0095
2700.00,0.0094
2687.00,0.0092
2674.00,0.0091
2661.00,0.0095
2648.00,0.0097
2635.00,0.0095
2622.00,0.0091
2609.00,0.0090
2596.00,0.0090
2583.00,0.0091
2570.00,0.0089
2557.00,0.0086
2544.00,0.0085
2531.00,0.0085
2518.00,0.0082
2505.00,0.0080
2492.00,0.0080
2479.00,0.0078
2466.00,0.0077
2453.00,0.0079
2440.00,0.0077
2427.00,0.0076
2414.00,0.0075
2401.00,0.0075
2388.00,0.0074
2375.00,0.0073
2362.00,0.0073
2349.00,0.0072
2336.00,0.0075
2323.00,0.0085
2310.00,0.0076
2297.00,0.0079
2284.00,0.0083
2271.00,0.0078
2258.00,0.0075
2245.00,0.0077
2232.00,0.0075
2219.00,0.0078
2206.00,0.0074
2193.00,0.0077
2180.00,0.0074
2167.00,0.0085
2154.00,0.0051
2141.00,0.0057
2128.00,0.0062
2115.00,0.0071
2102.00,0.0070
2089.00,0.0068
2076.00,0.0073
2063.00,0.0068
2050.00,0.0076
2037.00,0.0070
2024.00,0.0059
2011.00,0.0062
1998.00,0.0059
1985.00,0.0072
1972.00,0.0059
1959.00,0.0053
1946.00,0.0056
1933.00,0.0058
1920.00,0.0063
1907.00,0.0070
1894.00,0.0067
1881.00,0.0062
1868.00,0.0064
1855.00,0.0064
1842.00,0.0066
1829.00,0.0063
1816.00,0.0061
1803.00,0.0065
1790.00,0.0066
1777.00,0.0067
1764.00,0.0068
1751.00,0.0066
1738.00,0.0068
1725.00,0.0079
1712.00,0.0096
1699.00,0.0144
1686.00,0.0282
1673.00,0.0467
1660.00,0.0606
1647.00,0.0617
1634.00,0.0504
1621.00,0.0662
1608.00,0.0455
1595.00,0.0261
1582.00,0.0424
1569.00,0.0264
1556.00,0.0155
1543.00,0.0138
1530.00,0.0127
1517.00,0.0147
1504.00,0.0195
1491.00,0.0283
1478.00,0.0172
1465.00,0.0403
1452.00,0.0350
1439.00,0.0517
1426.00,0.0605
1413.00,0.0422
1400.00,0.0507
1387.00,0.0361
1374.00,0.0322
1361.00,0.0410
1348.00,0.0310
1335.00,0.0250
1322.00,0.0295
1309.00,0.0285
1296.00,0.0481
1283.00,0.0626
1270.00,0.0484
1257.00,0.0317
1244.00,0.0360
1231.00,0.0453
1218.00,0.0379
1205.00,0.0311
1192.00,0.0440
1179.00,0.0252
1166.00,0.0253
1153.00,0.0443
1140.00,0.0221
1127.00,0.0494
1114.00,0.0263
1101.00,0.0336
1088.00,0.0203
1075.00,0.0204
1062.00,0.0304
1049.00,0.0634
1036.00,0.0334
1023.00,0.0461
1010.00,0.0245
997.00,0.0282
984.00,0.0196
971.00,0.0183
958.00,0.0172
945.00,0.0161
932.00,0.0210
919.00,0.0203
906.00,0.0166
893.00,0.0205
880.00,0.0182
867.00,0.0369
854.00,0.0302
841.00,0.0295
828.00,0.0291
815.00,0.0452
802.00,0.0188
789.00,0.0181
776.00,0.0214
763.00,0.0216
750.00,0.0244
737.00,0.0353
724.00,0.0311
711.00,0.0305
698.00,0.0328
685.00,0.0351
672.00,0.0408
659.00,0.0442
646.00,0.0438
633.00,0.0410
620.00,0.0436
607.00,0.0434
594.00,0.0496
581.00,0.0521
568.00,0.0513
555.00,0.0517
542.00,0.0528
529.00,0.0529
516.00,0.0460
503.00,0.0464
490.00,0.0470
477.00,0.0452
464.00,0.0443
451.00,0.0439
438.00,0.0414
425.00,0.0396
412.00,0.0388
400.00,0.0382