File: FTIR/Olivia/2025_07_24_Polystyrene_Std_scan3.csv
Created as New Dataset,Sample 907 By YargerLab Date Thursday, July 24 2025
cm-1,A
4000.00,0.0006
3987.00,0.0005
3974.00,0.0006
3961.00,0.0005
3948.00,0.0005
3935.00,0.0005
3922.00,0.0005
3909.00,0.0005
3896.00,0.0005
3883.00,0.0005
3870.00,0.0005
3857.00,0.0006
3844.00,0.0005
3831.00,0.0006
3818.00,0.0006
3805.00,0.0006
3792.00,0.0006
3779.00,0.0005
3766.00,0.0006
3753.00,0.0007
3740.00,0.0006
3727.00,0.0005
3714.00,0.0006
3701.00,0.0005
3688.00,0.0005
3675.00,0.0006
3662.00,0.0006
3649.00,0.0006
3636.00,0.0005
3623.00,0.0005
3610.00,0.0004
3597.00,0.0005
3584.00,0.0005
3571.00,0.0005
3558.00,0.0006
3545.00,0.0006
3532.00,0.0007
3519.00,0.0008
3506.00,0.0008
3493.00,0.0008
3480.00,0.0009
3467.00,0.0009
3454.00,0.0009
3441.00,0.0010
3428.00,0.0008
3415.00,0.0008
3402.00,0.0009
3389.00,0.0008
3376.00,0.0008
3363.00,0.0008
3350.00,0.0008
3337.00,0.0008
3324.00,0.0008
3311.00,0.0008
3298.00,0.0007
3285.00,0.0007
3272.00,0.0008
3259.00,0.0007
3246.00,0.0007
3233.00,0.0007
3220.00,0.0006
3207.00,0.0007
3194.00,0.0007
3181.00,0.0007
3168.00,0.0008
3155.00,0.0007
3142.00,0.0007
3129.00,0.0007
3116.00,0.0010
3103.00,0.0024
3090.00,0.0034
3077.00,0.0051
3064.00,0.0074
3051.00,0.0054
3038.00,0.0059
3025.00,0.0166
3012.00,0.0046
2999.00,0.0045
2986.00,0.0024
2973.00,0.0027
2960.00,0.0039
2947.00,0.0072
2934.00,0.0147
2921.00,0.0203
2908.00,0.0155
2895.00,0.0092
2882.00,0.0064
2869.00,0.0050
2856.00,0.0077
2843.00,0.0071
2830.00,0.0024
2817.00,0.0018
2804.00,0.0016
2791.00,0.0013
2778.00,0.0012
2765.00,0.0011
2752.00,0.0011
2739.00,0.0010
2726.00,0.0011
2713.00,0.0011
2700.00,0.0011
2687.00,0.0010
2674.00,0.0011
2661.00,0.0014
2648.00,0.0016
2635.00,0.0016
2622.00,0.0014
2609.00,0.0015
2596.00,0.0013
2583.00,0.0012
2570.00,0.0010
2557.00,0.0009
2544.00,0.0008
2531.00,0.0008
2518.00,0.0009
2505.00,0.0008
2492.00,0.0007
2479.00,0.0007
2466.00,0.0007
2453.00,0.0008
2440.00,0.0007
2427.00,0.0005
2414.00,0.0004
2401.00,0.0003
2388.00,0.0002
2375.00,0.0003
2362.00,0.0004
2349.00,0.0005
2336.00,0.0009
2323.00,0.0019
2310.00,0.0012
2297.00,0.0013
2284.00,0.0015
2271.00,0.0011
2258.00,0.0011
2245.00,0.0010
2232.00,0.0006
2219.00,0.0007
2206.00,0.0007
2193.00,0.0010
2180.00,0.0005
2167.00,0.0016
2154.00,-0.0018
2141.00,-0.0012
2128.00,-0.0009
2115.00,0.0003
2102.00,0.0002
2089.00,0.0002
2076.00,0.0004
2063.00,0.0002
2050.00,0.0011
2037.00,0.0008
2024.00,-0.0002
2011.00,-0.0001
1998.00,-0.0002
1985.00,0.0010
1972.00,-0.0003
1959.00,0.0003
1946.00,0.0016
1933.00,0.0007
1920.00,0.0003
1907.00,0.0002
1894.00,0.0007
1881.00,0.0016
1868.00,0.0019
1855.00,0.0007
1842.00,0.0003
1829.00,0.0006
1816.00,0.0012
1803.00,0.0024
1790.00,0.0015
1777.00,0.0012
1764.00,0.0016
1751.00,0.0026
1738.00,0.0031
1725.00,0.0024
1712.00,0.0019
1699.00,0.0016
1686.00,0.0016
1673.00,0.0021
1660.00,0.0021
1647.00,0.0018
1634.00,0.0016
1621.00,0.0019
1608.00,0.0062
1595.00,0.0081
1582.00,0.0064
1569.00,0.0017
1556.00,0.0016
1543.00,0.0024
1530.00,0.0016
1517.00,0.0015
1504.00,0.0032
1491.00,0.0351
1478.00,0.0045
1465.00,0.0045
1452.00,0.0391
1439.00,0.0147
1426.00,0.0044
1413.00,0.0033
1400.00,0.0032
1387.00,0.0055
1374.00,0.0087
1361.00,0.0082
1348.00,0.0074
1335.00,0.0066
1322.00,0.0069
1309.00,0.0070
1296.00,0.0056
1283.00,0.0050
1270.00,0.0040
1257.00,0.0037
1244.00,0.0039
1231.00,0.0038
1218.00,0.0039
1205.00,0.0049
1192.00,0.0061
1179.00,0.0080
1166.00,0.0049
1153.00,0.0083
1140.00,0.0037
1127.00,0.0033
1114.00,0.0046
1101.00,0.0047
1088.00,0.0058
1075.00,0.0095
1062.00,0.0093
1049.00,0.0061
1036.00,0.0086
1023.00,0.0144
1010.00,0.0078
997.00,0.0061
984.00,0.0070
971.00,0.0070
958.00,0.0067
945.00,0.0064
932.00,0.0047
919.00,0.0055
906.00,0.0133
893.00,0.0048
880.00,0.0034
867.00,0.0029
854.00,0.0032
841.00,0.0066
828.00,0.0029
815.00,0.0026
802.00,0.0032
789.00,0.0062
776.00,0.0167
763.00,0.0431
750.00,0.0550
737.00,0.0240
724.00,0.0062
711.00,0.0149
698.00,0.1295
685.00,0.0503
672.00,0.0235
659.00,0.0140
646.00,0.0090
633.00,0.0100
620.00,0.0119
607.00,0.0094
594.00,0.0104
581.00,0.0134
568.00,0.0221
555.00,0.0322
542.00,0.0492
529.00,0.0350
516.00,0.0176
503.00,0.0122
490.00,0.0092
477.00,0.0078
464.00,0.0071
451.00,0.0064
438.00,0.0066
425.00,0.0060
412.00,0.0062
400.00,0.0045