File: FTIR/Olivia/2025_08_13_Polystyrene_Standard_scan1.csv
Created as New Dataset,Sample 053 By YargerLab Date Tuesday, August 12 2025
cm-1,A
4000.00,0.0012
3987.00,0.0011
3974.00,0.0011
3961.00,0.0011
3948.00,0.0011
3935.00,0.0011
3922.00,0.0011
3909.00,0.0011
3896.00,0.0011
3883.00,0.0010
3870.00,0.0010
3857.00,0.0010
3844.00,0.0011
3831.00,0.0011
3818.00,0.0011
3805.00,0.0011
3792.00,0.0011
3779.00,0.0010
3766.00,0.0011
3753.00,0.0010
3740.00,0.0011
3727.00,0.0011
3714.00,0.0010
3701.00,0.0010
3688.00,0.0010
3675.00,0.0011
3662.00,0.0011
3649.00,0.0012
3636.00,0.0010
3623.00,0.0011
3610.00,0.0010
3597.00,0.0011
3584.00,0.0011
3571.00,0.0013
3558.00,0.0014
3545.00,0.0015
3532.00,0.0015
3519.00,0.0016
3506.00,0.0017
3493.00,0.0018
3480.00,0.0018
3467.00,0.0019
3454.00,0.0019
3441.00,0.0019
3428.00,0.0019
3415.00,0.0019
3402.00,0.0018
3389.00,0.0019
3376.00,0.0018
3363.00,0.0018
3350.00,0.0018
3337.00,0.0018
3324.00,0.0017
3311.00,0.0017
3298.00,0.0016
3285.00,0.0016
3272.00,0.0016
3259.00,0.0016
3246.00,0.0015
3233.00,0.0015
3220.00,0.0015
3207.00,0.0015
3194.00,0.0014
3181.00,0.0014
3168.00,0.0015
3155.00,0.0013
3142.00,0.0013
3129.00,0.0014
3116.00,0.0019
3103.00,0.0040
3090.00,0.0060
3077.00,0.0082
3064.00,0.0127
3051.00,0.0087
3038.00,0.0102
3025.00,0.0277
3012.00,0.0074
2999.00,0.0070
2986.00,0.0038
2973.00,0.0044
2960.00,0.0065
2947.00,0.0122
2934.00,0.0250
2921.00,0.0336
2908.00,0.0250
2895.00,0.0147
2882.00,0.0102
2869.00,0.0082
2856.00,0.0128
2843.00,0.0113
2830.00,0.0039
2817.00,0.0030
2804.00,0.0027
2791.00,0.0023
2778.00,0.0022
2765.00,0.0020
2752.00,0.0018
2739.00,0.0018
2726.00,0.0019
2713.00,0.0018
2700.00,0.0018
2687.00,0.0018
2674.00,0.0018
2661.00,0.0021
2648.00,0.0022
2635.00,0.0023
2622.00,0.0020
2609.00,0.0020
2596.00,0.0018
2583.00,0.0017
2570.00,0.0015
2557.00,0.0014
2544.00,0.0013
2531.00,0.0012
2518.00,0.0013
2505.00,0.0012
2492.00,0.0012
2479.00,0.0012
2466.00,0.0010
2453.00,0.0012
2440.00,0.0009
2427.00,0.0007
2414.00,0.0008
2401.00,0.0006
2388.00,0.0006
2375.00,0.0006
2362.00,0.0008
2349.00,0.0011
2336.00,0.0015
2323.00,0.0024
2310.00,0.0019
2297.00,0.0016
2284.00,0.0018
2271.00,0.0013
2258.00,0.0013
2245.00,0.0009
2232.00,0.0010
2219.00,0.0008
2206.00,0.0004
2193.00,0.0007
2180.00,0.0006
2167.00,0.0017
2154.00,-0.0017
2141.00,-0.0010
2128.00,-0.0008
2115.00,0.0004
2102.00,0.0003
2089.00,0.0002
2076.00,0.0005
2063.00,0.0002
2050.00,0.0011
2037.00,0.0005
2024.00,-0.0006
2011.00,-0.0000
1998.00,-0.0001
1985.00,0.0011
1972.00,-0.0001
1959.00,0.0010
1946.00,0.0030
1933.00,0.0015
1920.00,0.0005
1907.00,0.0004
1894.00,0.0014
1881.00,0.0026
1868.00,0.0029
1855.00,0.0012
1842.00,0.0006
1829.00,0.0011
1816.00,0.0022
1803.00,0.0038
1790.00,0.0022
1777.00,0.0020
1764.00,0.0024
1751.00,0.0043
1738.00,0.0054
1725.00,0.0041
1712.00,0.0033
1699.00,0.0031
1686.00,0.0036
1673.00,0.0044
1660.00,0.0041
1647.00,0.0030
1634.00,0.0025
1621.00,0.0029
1608.00,0.0102
1595.00,0.0121
1582.00,0.0096
1569.00,0.0025
1556.00,0.0023
1543.00,0.0035
1530.00,0.0024
1517.00,0.0023
1504.00,0.0055
1491.00,0.0527
1478.00,0.0066
1465.00,0.0071
1452.00,0.0615
1439.00,0.0217
1426.00,0.0067
1413.00,0.0048
1400.00,0.0048
1387.00,0.0084
1374.00,0.0131
1361.00,0.0120
1348.00,0.0106
1335.00,0.0097
1322.00,0.0103
1309.00,0.0105
1296.00,0.0089
1283.00,0.0080
1270.00,0.0063
1257.00,0.0057
1244.00,0.0060
1231.00,0.0059
1218.00,0.0060
1205.00,0.0075
1192.00,0.0094
1179.00,0.0120
1166.00,0.0075
1153.00,0.0125
1140.00,0.0055
1127.00,0.0050
1114.00,0.0068
1101.00,0.0070
1088.00,0.0087
1075.00,0.0145
1062.00,0.0141
1049.00,0.0092
1036.00,0.0132
1023.00,0.0218
1010.00,0.0116
997.00,0.0092
984.00,0.0106
971.00,0.0106
958.00,0.0099
945.00,0.0096
932.00,0.0070
919.00,0.0083
906.00,0.0196
893.00,0.0070
880.00,0.0050
867.00,0.0044
854.00,0.0049
841.00,0.0098
828.00,0.0043
815.00,0.0042
802.00,0.0050
789.00,0.0096
776.00,0.0249
763.00,0.0630
750.00,0.0787
737.00,0.0337
724.00,0.0092
711.00,0.0222
698.00,0.1841
685.00,0.0657
672.00,0.0308
659.00,0.0189
646.00,0.0128
633.00,0.0138
620.00,0.0165
607.00,0.0128
594.00,0.0144
581.00,0.0184
568.00,0.0309
555.00,0.0438
542.00,0.0673
529.00,0.0469
516.00,0.0237
503.00,0.0161
490.00,0.0129
477.00,0.0104
464.00,0.0097
451.00,0.0090
438.00,0.0085
425.00,0.0083
412.00,0.0074
400.00,0.0071