File: FTIR/Olivia/2025_06_06_Crystalline_Nifedipine_05_25_DSC_Scan3.csv
Created as New Dataset,Sample 628 By YargerLab Date Friday, June 06 2025
cm-1,A
4000.00,0.0073
3987.00,0.0073
3974.00,0.0073
3961.00,0.0073
3948.00,0.0073
3935.00,0.0073
3922.00,0.0072
3909.00,0.0072
3896.00,0.0072
3883.00,0.0071
3870.00,0.0070
3857.00,0.0070
3844.00,0.0070
3831.00,0.0070
3818.00,0.0070
3805.00,0.0069
3792.00,0.0070
3779.00,0.0070
3766.00,0.0070
3753.00,0.0069
3740.00,0.0068
3727.00,0.0069
3714.00,0.0067
3701.00,0.0067
3688.00,0.0063
3675.00,0.0056
3662.00,0.0053
3649.00,0.0053
3636.00,0.0057
3623.00,0.0062
3610.00,0.0064
3597.00,0.0064
3584.00,0.0064
3571.00,0.0063
3558.00,0.0063
3545.00,0.0063
3532.00,0.0063
3519.00,0.0064
3506.00,0.0063
3493.00,0.0063
3480.00,0.0062
3467.00,0.0063
3454.00,0.0063
3441.00,0.0063
3428.00,0.0065
3415.00,0.0068
3402.00,0.0074
3389.00,0.0090
3376.00,0.0117
3363.00,0.0159
3350.00,0.0260
3337.00,0.0516
3324.00,0.0612
3311.00,0.0452
3298.00,0.0322
3285.00,0.0262
3272.00,0.0225
3259.00,0.0220
3246.00,0.0211
3233.00,0.0196
3220.00,0.0157
3207.00,0.0134
3194.00,0.0119
3181.00,0.0114
3168.00,0.0110
3155.00,0.0108
3142.00,0.0113
3129.00,0.0120
3116.00,0.0139
3103.00,0.0170
3090.00,0.0149
3077.00,0.0147
3064.00,0.0130
3051.00,0.0117
3038.00,0.0126
3025.00,0.0135
3012.00,0.0122
2999.00,0.0146
2986.00,0.0069
2973.00,0.0046
2960.00,0.0176
2947.00,0.0186
2934.00,0.0142
2921.00,0.0123
2908.00,0.0105
2895.00,0.0087
2882.00,0.0090
2869.00,0.0114
2856.00,0.0109
2843.00,0.0136
2830.00,0.0106
2817.00,0.0105
2804.00,0.0105
2791.00,0.0093
2778.00,0.0086
2765.00,0.0086
2752.00,0.0084
2739.00,0.0083
2726.00,0.0083
2713.00,0.0083
2700.00,0.0083
2687.00,0.0081
2674.00,0.0081
2661.00,0.0082
2648.00,0.0084
2635.00,0.0083
2622.00,0.0085
2609.00,0.0083
2596.00,0.0080
2583.00,0.0078
2570.00,0.0075
2557.00,0.0074
2544.00,0.0075
2531.00,0.0075
2518.00,0.0072
2505.00,0.0070
2492.00,0.0072
2479.00,0.0070
2466.00,0.0070
2453.00,0.0074
2440.00,0.0070
2427.00,0.0068
2414.00,0.0067
2401.00,0.0065
2388.00,0.0064
2375.00,0.0063
2362.00,0.0063
2349.00,0.0063
2336.00,0.0065
2323.00,0.0072
2310.00,0.0060
2297.00,0.0063
2284.00,0.0071
2271.00,0.0065
2258.00,0.0060
2245.00,0.0056
2232.00,0.0050
2219.00,0.0052
2206.00,0.0046
2193.00,0.0047
2180.00,0.0043
2167.00,0.0061
2154.00,0.0029
2141.00,0.0034
2128.00,0.0038
2115.00,0.0048
2102.00,0.0049
2089.00,0.0049
2076.00,0.0051
2063.00,0.0045
2050.00,0.0046
2037.00,0.0027
2024.00,0.0028
2011.00,0.0035
1998.00,0.0044
1985.00,0.0046
1972.00,0.0034
1959.00,0.0035
1946.00,0.0039
1933.00,0.0046
1920.00,0.0051
1907.00,0.0044
1894.00,0.0043
1881.00,0.0040
1868.00,0.0045
1855.00,0.0046
1842.00,0.0043
1829.00,0.0046
1816.00,0.0039
1803.00,0.0050
1790.00,0.0052
1777.00,0.0054
1764.00,0.0061
1751.00,0.0074
1738.00,0.0088
1725.00,0.0109
1712.00,0.0223
1699.00,0.0483
1686.00,0.1569
1673.00,0.1615
1660.00,0.0648
1647.00,0.0962
1634.00,0.0599
1621.00,0.0786
1608.00,0.0562
1595.00,0.0331
1582.00,0.0209
1569.00,0.0219
1556.00,0.0182
1543.00,0.0262
1530.00,0.1391
1517.00,0.0931
1504.00,0.0917
1491.00,0.1513
1478.00,0.0951
1465.00,0.0694
1452.00,0.0603
1439.00,0.0913
1426.00,0.1104
1413.00,0.0481
1400.00,0.0302
1387.00,0.0405
1374.00,0.0402
1361.00,0.0449
1348.00,0.1527
1335.00,0.0953
1322.00,0.0883
1309.00,0.1422
1296.00,0.0840
1283.00,0.0708
1270.00,0.0689
1257.00,0.0385
1244.00,0.0487
1231.00,0.1637
1218.00,0.2209
1205.00,0.1192
1192.00,0.1497
1179.00,0.0928
1166.00,0.0871
1153.00,0.0935
1140.00,0.0516
1127.00,0.0975
1114.00,0.1691
1101.00,0.1758
1088.00,0.0883
1075.00,0.0574
1062.00,0.0571
1049.00,0.0891
1036.00,0.0726
1023.00,0.1427
1010.00,0.0850
997.00,0.0536
984.00,0.0412
971.00,0.0369
958.00,0.0396
945.00,0.0318
932.00,0.0269
919.00,0.0256
906.00,0.0237
893.00,0.0220
880.00,0.0220
867.00,0.0200
854.00,0.0360
841.00,0.0257
828.00,0.1180
815.00,0.0333
802.00,0.0303
789.00,0.0892
776.00,0.0407
763.00,0.1075
750.00,0.0652
737.00,0.0602
724.00,0.0324
711.00,0.1411
698.00,0.0522
685.00,0.1015
672.00,0.0821
659.00,0.0650
646.00,0.0384
633.00,0.0315
620.00,0.0767
607.00,0.0576
594.00,0.0435
581.00,0.0487
568.00,0.0425
555.00,0.0323
542.00,0.0267
529.00,0.0243
516.00,0.0246
503.00,0.0231
490.00,0.0214
477.00,0.0288
464.00,0.0499
451.00,0.0288
438.00,0.0241
425.00,0.0255
412.00,0.0531
400.00,0.0368