File: FTIR/Olivia/2025_08_12_Polystyrene_film_scan1.csv
Created as New Dataset,Sample 038 By YargerLab Date Tuesday, August 12 2025
cm-1,A
4000.00,0.0003
3987.00,0.0003
3974.00,0.0002
3961.00,0.0002
3948.00,0.0002
3935.00,0.0002
3922.00,0.0003
3909.00,0.0003
3896.00,0.0002
3883.00,0.0002
3870.00,0.0001
3857.00,0.0002
3844.00,0.0002
3831.00,0.0002
3818.00,0.0001
3805.00,0.0003
3792.00,0.0002
3779.00,0.0002
3766.00,0.0002
3753.00,0.0003
3740.00,0.0001
3727.00,0.0001
3714.00,0.0002
3701.00,0.0001
3688.00,0.0001
3675.00,0.0000
3662.00,0.0002
3649.00,0.0001
3636.00,0.0002
3623.00,0.0001
3610.00,0.0000
3597.00,0.0001
3584.00,0.0001
3571.00,0.0002
3558.00,0.0002
3545.00,0.0002
3532.00,0.0003
3519.00,0.0003
3506.00,0.0003
3493.00,0.0003
3480.00,0.0003
3467.00,0.0003
3454.00,0.0003
3441.00,0.0003
3428.00,0.0003
3415.00,0.0003
3402.00,0.0004
3389.00,0.0004
3376.00,0.0003
3363.00,0.0003
3350.00,0.0004
3337.00,0.0004
3324.00,0.0004
3311.00,0.0004
3298.00,0.0005
3285.00,0.0004
3272.00,0.0004
3259.00,0.0004
3246.00,0.0004
3233.00,0.0004
3220.00,0.0003
3207.00,0.0004
3194.00,0.0003
3181.00,0.0003
3168.00,0.0003
3155.00,0.0003
3142.00,0.0003
3129.00,0.0003
3116.00,0.0004
3103.00,0.0010
3090.00,0.0014
3077.00,0.0022
3064.00,0.0031
3051.00,0.0024
3038.00,0.0024
3025.00,0.0074
3012.00,0.0020
2999.00,0.0019
2986.00,0.0009
2973.00,0.0010
2960.00,0.0015
2947.00,0.0030
2934.00,0.0062
2921.00,0.0089
2908.00,0.0068
2895.00,0.0038
2882.00,0.0027
2869.00,0.0020
2856.00,0.0032
2843.00,0.0032
2830.00,0.0010
2817.00,0.0007
2804.00,0.0006
2791.00,0.0005
2778.00,0.0005
2765.00,0.0004
2752.00,0.0004
2739.00,0.0004
2726.00,0.0004
2713.00,0.0004
2700.00,0.0004
2687.00,0.0004
2674.00,0.0004
2661.00,0.0006
2648.00,0.0008
2635.00,0.0008
2622.00,0.0007
2609.00,0.0006
2596.00,0.0005
2583.00,0.0005
2570.00,0.0004
2557.00,0.0004
2544.00,0.0003
2531.00,0.0002
2518.00,0.0003
2505.00,0.0002
2492.00,0.0002
2479.00,0.0002
2466.00,0.0002
2453.00,0.0003
2440.00,0.0001
2427.00,0.0000
2414.00,0.0000
2401.00,-0.0001
2388.00,-0.0002
2375.00,-0.0005
2362.00,-0.0006
2349.00,-0.0004
2336.00,-0.0001
2323.00,0.0008
2310.00,0.0002
2297.00,0.0005
2284.00,0.0011
2271.00,0.0006
2258.00,0.0004
2245.00,0.0003
2232.00,0.0004
2219.00,0.0003
2206.00,0.0002
2193.00,0.0002
2180.00,-0.0004
2167.00,0.0009
2154.00,-0.0017
2141.00,-0.0013
2128.00,-0.0010
2115.00,-0.0001
2102.00,-0.0001
2089.00,-0.0000
2076.00,0.0002
2063.00,-0.0002
2050.00,0.0009
2037.00,0.0001
2024.00,-0.0006
2011.00,-0.0005
1998.00,-0.0004
1985.00,0.0003
1972.00,-0.0004
1959.00,-0.0005
1946.00,0.0005
1933.00,-0.0001
1920.00,-0.0001
1907.00,-0.0003
1894.00,0.0001
1881.00,0.0005
1868.00,0.0006
1855.00,0.0001
1842.00,-0.0001
1829.00,0.0001
1816.00,0.0003
1803.00,0.0010
1790.00,0.0005
1777.00,0.0003
1764.00,0.0005
1751.00,0.0011
1738.00,0.0013
1725.00,0.0009
1712.00,0.0007
1699.00,0.0007
1686.00,0.0009
1673.00,0.0012
1660.00,0.0012
1647.00,0.0008
1634.00,0.0007
1621.00,0.0011
1608.00,0.0032
1595.00,0.0045
1582.00,0.0036
1569.00,0.0009
1556.00,0.0008
1543.00,0.0014
1530.00,0.0010
1517.00,0.0009
1504.00,0.0018
1491.00,0.0218
1478.00,0.0026
1465.00,0.0027
1452.00,0.0232
1439.00,0.0088
1426.00,0.0026
1413.00,0.0018
1400.00,0.0019
1387.00,0.0031
1374.00,0.0049
1361.00,0.0047
1348.00,0.0041
1335.00,0.0038
1322.00,0.0040
1309.00,0.0042
1296.00,0.0035
1283.00,0.0032
1270.00,0.0024
1257.00,0.0021
1244.00,0.0023
1231.00,0.0023
1218.00,0.0024
1205.00,0.0030
1192.00,0.0040
1179.00,0.0050
1166.00,0.0030
1153.00,0.0054
1140.00,0.0021
1127.00,0.0021
1114.00,0.0029
1101.00,0.0031
1088.00,0.0037
1075.00,0.0063
1062.00,0.0064
1049.00,0.0044
1036.00,0.0057
1023.00,0.0101
1010.00,0.0053
997.00,0.0043
984.00,0.0050
971.00,0.0049
958.00,0.0047
945.00,0.0047
932.00,0.0033
919.00,0.0040
906.00,0.0101
893.00,0.0036
880.00,0.0025
867.00,0.0022
854.00,0.0024
841.00,0.0050
828.00,0.0021
815.00,0.0021
802.00,0.0025
789.00,0.0050
776.00,0.0126
763.00,0.0336
750.00,0.0445
737.00,0.0191
724.00,0.0051
711.00,0.0113
698.00,0.1156
685.00,0.0489
672.00,0.0209
659.00,0.0120
646.00,0.0073
633.00,0.0082
620.00,0.0100
607.00,0.0075
594.00,0.0085
581.00,0.0114
568.00,0.0191
555.00,0.0272
542.00,0.0443
529.00,0.0332
516.00,0.0161
503.00,0.0107
490.00,0.0089
477.00,0.0072
464.00,0.0069
451.00,0.0058
438.00,0.0059
425.00,0.0049
412.00,0.0034
400.00,0.0073