File: FTIR/Olivia/2025_08_04_Polystyrene_film_scan2.csv
Created as New Dataset,Sample 1030 By YargerLab Date Monday, August 04 2025
cm-1,A
4000.00,0.0003
3987.00,0.0003
3974.00,0.0003
3961.00,0.0003
3948.00,0.0002
3935.00,0.0003
3922.00,0.0003
3909.00,0.0002
3896.00,0.0001
3883.00,0.0002
3870.00,0.0002
3857.00,0.0002
3844.00,0.0002
3831.00,0.0002
3818.00,0.0001
3805.00,0.0002
3792.00,0.0003
3779.00,0.0003
3766.00,0.0003
3753.00,0.0002
3740.00,-0.0000
3727.00,0.0001
3714.00,0.0002
3701.00,0.0001
3688.00,0.0001
3675.00,0.0000
3662.00,0.0002
3649.00,-0.0001
3636.00,0.0001
3623.00,0.0000
3610.00,0.0001
3597.00,0.0002
3584.00,0.0002
3571.00,0.0002
3558.00,0.0003
3545.00,0.0003
3532.00,0.0004
3519.00,0.0005
3506.00,0.0006
3493.00,0.0006
3480.00,0.0006
3467.00,0.0006
3454.00,0.0007
3441.00,0.0007
3428.00,0.0007
3415.00,0.0008
3402.00,0.0007
3389.00,0.0007
3376.00,0.0007
3363.00,0.0007
3350.00,0.0007
3337.00,0.0007
3324.00,0.0007
3311.00,0.0007
3298.00,0.0007
3285.00,0.0007
3272.00,0.0006
3259.00,0.0006
3246.00,0.0006
3233.00,0.0005
3220.00,0.0005
3207.00,0.0005
3194.00,0.0005
3181.00,0.0005
3168.00,0.0005
3155.00,0.0005
3142.00,0.0004
3129.00,0.0004
3116.00,0.0005
3103.00,0.0013
3090.00,0.0017
3077.00,0.0029
3064.00,0.0039
3051.00,0.0031
3038.00,0.0032
3025.00,0.0094
3012.00,0.0025
2999.00,0.0023
2986.00,0.0011
2973.00,0.0016
2960.00,0.0032
2947.00,0.0048
2934.00,0.0101
2921.00,0.0159
2908.00,0.0109
2895.00,0.0063
2882.00,0.0041
2869.00,0.0036
2856.00,0.0061
2843.00,0.0052
2830.00,0.0014
2817.00,0.0009
2804.00,0.0009
2791.00,0.0007
2778.00,0.0006
2765.00,0.0006
2752.00,0.0005
2739.00,0.0005
2726.00,0.0005
2713.00,0.0005
2700.00,0.0005
2687.00,0.0005
2674.00,0.0005
2661.00,0.0008
2648.00,0.0010
2635.00,0.0010
2622.00,0.0008
2609.00,0.0007
2596.00,0.0007
2583.00,0.0006
2570.00,0.0005
2557.00,0.0004
2544.00,0.0004
2531.00,0.0004
2518.00,0.0004
2505.00,0.0002
2492.00,0.0002
2479.00,0.0002
2466.00,0.0002
2453.00,0.0003
2440.00,0.0002
2427.00,0.0002
2414.00,0.0000
2401.00,-0.0001
2388.00,-0.0001
2375.00,-0.0001
2362.00,-0.0000
2349.00,0.0002
2336.00,0.0004
2323.00,0.0013
2310.00,0.0007
2297.00,0.0008
2284.00,0.0011
2271.00,0.0006
2258.00,0.0006
2245.00,0.0003
2232.00,0.0005
2219.00,0.0002
2206.00,0.0001
2193.00,0.0002
2180.00,-0.0001
2167.00,0.0010
2154.00,-0.0021
2141.00,-0.0013
2128.00,-0.0011
2115.00,-0.0000
2102.00,-0.0001
2089.00,-0.0002
2076.00,0.0000
2063.00,-0.0002
2050.00,0.0007
2037.00,0.0000
2024.00,-0.0004
2011.00,-0.0007
1998.00,-0.0005
1985.00,0.0006
1972.00,-0.0007
1959.00,-0.0004
1946.00,0.0005
1933.00,0.0001
1920.00,-0.0003
1907.00,-0.0003
1894.00,0.0000
1881.00,0.0006
1868.00,0.0007
1855.00,0.0001
1842.00,-0.0001
1829.00,0.0001
1816.00,0.0004
1803.00,0.0012
1790.00,0.0007
1777.00,0.0005
1764.00,0.0008
1751.00,0.0015
1738.00,0.0018
1725.00,0.0014
1712.00,0.0011
1699.00,0.0006
1686.00,0.0002
1673.00,0.0014
1660.00,0.0022
1647.00,0.0017
1634.00,0.0013
1621.00,0.0013
1608.00,0.0039
1595.00,0.0056
1582.00,0.0045
1569.00,0.0011
1556.00,0.0010
1543.00,0.0019
1530.00,0.0011
1517.00,0.0010
1504.00,0.0023
1491.00,0.0267
1478.00,0.0035
1465.00,0.0043
1452.00,0.0291
1439.00,0.0110
1426.00,0.0031
1413.00,0.0023
1400.00,0.0022
1387.00,0.0040
1374.00,0.0065
1361.00,0.0061
1348.00,0.0055
1335.00,0.0050
1322.00,0.0054
1309.00,0.0055
1296.00,0.0046
1283.00,0.0038
1270.00,0.0031
1257.00,0.0029
1244.00,0.0031
1231.00,0.0031
1218.00,0.0033
1205.00,0.0042
1192.00,0.0052
1179.00,0.0067
1166.00,0.0042
1153.00,0.0069
1140.00,0.0031
1127.00,0.0031
1114.00,0.0042
1101.00,0.0043
1088.00,0.0051
1075.00,0.0083
1062.00,0.0083
1049.00,0.0055
1036.00,0.0077
1023.00,0.0131
1010.00,0.0071
997.00,0.0057
984.00,0.0064
971.00,0.0062
958.00,0.0062
945.00,0.0061
932.00,0.0044
919.00,0.0052
906.00,0.0124
893.00,0.0045
880.00,0.0032
867.00,0.0026
854.00,0.0031
841.00,0.0064
828.00,0.0029
815.00,0.0029
802.00,0.0033
789.00,0.0064
776.00,0.0163
763.00,0.0431
750.00,0.0556
737.00,0.0239
724.00,0.0067
711.00,0.0151
698.00,0.1595
685.00,0.0594
672.00,0.0261
659.00,0.0156
646.00,0.0095
633.00,0.0105
620.00,0.0127
607.00,0.0099
594.00,0.0110
581.00,0.0142
568.00,0.0242
555.00,0.0353
542.00,0.0563
529.00,0.0411
516.00,0.0203
503.00,0.0135
490.00,0.0109
477.00,0.0090
464.00,0.0087
451.00,0.0076
438.00,0.0066
425.00,0.0061
412.00,0.0064
400.00,0.0060