File: FTIR/Olivia/2025_06_18_Std_Polystyrene_scan2.csv
Created as New Dataset,Sample 693 By YargerLab Date Wednesday, June 18 2025
cm-1,A
4000.00,0.0019
3987.00,0.0019
3974.00,0.0019
3961.00,0.0018
3948.00,0.0018
3935.00,0.0018
3922.00,0.0018
3909.00,0.0018
3896.00,0.0018
3883.00,0.0019
3870.00,0.0019
3857.00,0.0020
3844.00,0.0019
3831.00,0.0019
3818.00,0.0021
3805.00,0.0021
3792.00,0.0018
3779.00,0.0018
3766.00,0.0018
3753.00,0.0020
3740.00,0.0019
3727.00,0.0017
3714.00,0.0018
3701.00,0.0017
3688.00,0.0019
3675.00,0.0018
3662.00,0.0016
3649.00,0.0018
3636.00,0.0016
3623.00,0.0017
3610.00,0.0016
3597.00,0.0016
3584.00,0.0016
3571.00,0.0016
3558.00,0.0016
3545.00,0.0016
3532.00,0.0017
3519.00,0.0017
3506.00,0.0019
3493.00,0.0018
3480.00,0.0020
3467.00,0.0019
3454.00,0.0019
3441.00,0.0019
3428.00,0.0020
3415.00,0.0018
3402.00,0.0019
3389.00,0.0019
3376.00,0.0018
3363.00,0.0019
3350.00,0.0019
3337.00,0.0019
3324.00,0.0019
3311.00,0.0019
3298.00,0.0018
3285.00,0.0018
3272.00,0.0018
3259.00,0.0018
3246.00,0.0017
3233.00,0.0017
3220.00,0.0017
3207.00,0.0018
3194.00,0.0018
3181.00,0.0017
3168.00,0.0019
3155.00,0.0017
3142.00,0.0017
3129.00,0.0018
3116.00,0.0023
3103.00,0.0044
3090.00,0.0059
3077.00,0.0086
3064.00,0.0125
3051.00,0.0092
3038.00,0.0099
3025.00,0.0283
3012.00,0.0079
2999.00,0.0072
2986.00,0.0035
2973.00,0.0036
2960.00,0.0056
2947.00,0.0110
2934.00,0.0230
2921.00,0.0326
2908.00,0.0252
2895.00,0.0148
2882.00,0.0102
2869.00,0.0080
2856.00,0.0122
2843.00,0.0121
2830.00,0.0043
2817.00,0.0033
2804.00,0.0030
2791.00,0.0027
2778.00,0.0026
2765.00,0.0024
2752.00,0.0022
2739.00,0.0022
2726.00,0.0023
2713.00,0.0023
2700.00,0.0022
2687.00,0.0022
2674.00,0.0022
2661.00,0.0026
2648.00,0.0027
2635.00,0.0028
2622.00,0.0025
2609.00,0.0024
2596.00,0.0024
2583.00,0.0022
2570.00,0.0020
2557.00,0.0019
2544.00,0.0018
2531.00,0.0018
2518.00,0.0018
2505.00,0.0017
2492.00,0.0016
2479.00,0.0016
2466.00,0.0016
2453.00,0.0017
2440.00,0.0014
2427.00,0.0013
2414.00,0.0013
2401.00,0.0011
2388.00,0.0011
2375.00,0.0013
2362.00,0.0015
2349.00,0.0018
2336.00,0.0023
2323.00,0.0032
2310.00,0.0025
2297.00,0.0023
2284.00,0.0025
2271.00,0.0019
2258.00,0.0017
2245.00,0.0016
2232.00,0.0014
2219.00,0.0013
2206.00,0.0013
2193.00,0.0014
2180.00,0.0008
2167.00,0.0021
2154.00,-0.0012
2141.00,-0.0007
2128.00,-0.0003
2115.00,0.0011
2102.00,0.0009
2089.00,0.0008
2076.00,0.0010
2063.00,0.0007
2050.00,0.0014
2037.00,0.0010
2024.00,-0.0004
2011.00,0.0004
1998.00,0.0005
1985.00,0.0018
1972.00,0.0005
1959.00,0.0016
1946.00,0.0036
1933.00,0.0022
1920.00,0.0010
1907.00,0.0009
1894.00,0.0019
1881.00,0.0031
1868.00,0.0036
1855.00,0.0017
1842.00,0.0011
1829.00,0.0015
1816.00,0.0026
1803.00,0.0043
1790.00,0.0025
1777.00,0.0020
1764.00,0.0022
1751.00,0.0040
1738.00,0.0045
1725.00,0.0033
1712.00,0.0027
1699.00,0.0026
1686.00,0.0028
1673.00,0.0033
1660.00,0.0031
1647.00,0.0025
1634.00,0.0024
1621.00,0.0031
1608.00,0.0108
1595.00,0.0141
1582.00,0.0110
1569.00,0.0031
1556.00,0.0030
1543.00,0.0042
1530.00,0.0032
1517.00,0.0029
1504.00,0.0060
1491.00,0.0638
1478.00,0.0076
1465.00,0.0075
1452.00,0.0713
1439.00,0.0253
1426.00,0.0072
1413.00,0.0051
1400.00,0.0049
1387.00,0.0088
1374.00,0.0145
1361.00,0.0134
1348.00,0.0121
1335.00,0.0108
1322.00,0.0115
1309.00,0.0118
1296.00,0.0094
1283.00,0.0084
1270.00,0.0066
1257.00,0.0060
1244.00,0.0064
1231.00,0.0061
1218.00,0.0063
1205.00,0.0080
1192.00,0.0101
1179.00,0.0132
1166.00,0.0076
1153.00,0.0138
1140.00,0.0054
1127.00,0.0050
1114.00,0.0074
1101.00,0.0078
1088.00,0.0099
1075.00,0.0164
1062.00,0.0162
1049.00,0.0105
1036.00,0.0152
1023.00,0.0268
1010.00,0.0139
997.00,0.0108
984.00,0.0126
971.00,0.0123
958.00,0.0118
945.00,0.0113
932.00,0.0083
919.00,0.0098
906.00,0.0244
893.00,0.0086
880.00,0.0061
867.00,0.0053
854.00,0.0060
841.00,0.0125
828.00,0.0054
815.00,0.0054
802.00,0.0064
789.00,0.0123
776.00,0.0315
763.00,0.0840
750.00,0.1084
737.00,0.0454
724.00,0.0123
711.00,0.0285
698.00,0.3077
685.00,0.0996
672.00,0.0446
659.00,0.0263
646.00,0.0162
633.00,0.0185
620.00,0.0224
607.00,0.0172
594.00,0.0190
581.00,0.0248
568.00,0.0421
555.00,0.0613
542.00,0.0971
529.00,0.0679
516.00,0.0338
503.00,0.0221
490.00,0.0167
477.00,0.0144
464.00,0.0136
451.00,0.0114
438.00,0.0105
425.00,0.0093
412.00,0.0120
400.00,0.0093