File: FTIR/Olivia/2025_06_05_CBD_Powder_scan2.csv
Created as New Dataset,Sample 583 By YargerLab Date Thursday, June 05 2025
cm-1,A
4000.00,0.0081
3987.00,0.0081
3974.00,0.0081
3961.00,0.0083
3948.00,0.0082
3935.00,0.0082
3922.00,0.0083
3909.00,0.0081
3896.00,0.0080
3883.00,0.0079
3870.00,0.0078
3857.00,0.0078
3844.00,0.0078
3831.00,0.0077
3818.00,0.0076
3805.00,0.0077
3792.00,0.0076
3779.00,0.0076
3766.00,0.0075
3753.00,0.0075
3740.00,0.0073
3727.00,0.0071
3714.00,0.0071
3701.00,0.0070
3688.00,0.0069
3675.00,0.0066
3662.00,0.0066
3649.00,0.0065
3636.00,0.0066
3623.00,0.0068
3610.00,0.0069
3597.00,0.0070
3584.00,0.0074
3571.00,0.0079
3558.00,0.0091
3545.00,0.0123
3532.00,0.0249
3519.00,0.0570
3506.00,0.0310
3493.00,0.0267
3480.00,0.0306
3467.00,0.0386
3454.00,0.0491
3441.00,0.0591
3428.00,0.0682
3415.00,0.0821
3402.00,0.0825
3389.00,0.0516
3376.00,0.0352
3363.00,0.0264
3350.00,0.0210
3337.00,0.0175
3324.00,0.0152
3311.00,0.0136
3298.00,0.0123
3285.00,0.0113
3272.00,0.0105
3259.00,0.0103
3246.00,0.0099
3233.00,0.0095
3220.00,0.0093
3207.00,0.0091
3194.00,0.0090
3181.00,0.0091
3168.00,0.0093
3155.00,0.0091
3142.00,0.0090
3129.00,0.0089
3116.00,0.0089
3103.00,0.0089
3090.00,0.0094
3077.00,0.0177
3064.00,0.0111
3051.00,0.0101
3038.00,0.0119
3025.00,0.0116
3012.00,0.0111
2999.00,0.0118
2986.00,0.0149
2973.00,0.0315
2960.00,0.0483
2947.00,0.0413
2934.00,0.0728
2921.00,0.0951
2908.00,0.0708
2895.00,0.0468
2882.00,0.0390
2869.00,0.0441
2856.00,0.0721
2843.00,0.0303
2830.00,0.0393
2817.00,0.0177
2804.00,0.0139
2791.00,0.0122
2778.00,0.0111
2765.00,0.0105
2752.00,0.0102
2739.00,0.0107
2726.00,0.0119
2713.00,0.0101
2700.00,0.0096
2687.00,0.0096
2674.00,0.0101
2661.00,0.0104
2648.00,0.0101
2635.00,0.0098
2622.00,0.0098
2609.00,0.0096
2596.00,0.0094
2583.00,0.0093
2570.00,0.0093
2557.00,0.0092
2544.00,0.0090
2531.00,0.0089
2518.00,0.0089
2505.00,0.0088
2492.00,0.0089
2479.00,0.0090
2466.00,0.0089
2453.00,0.0093
2440.00,0.0086
2427.00,0.0080
2414.00,0.0078
2401.00,0.0076
2388.00,0.0075
2375.00,0.0069
2362.00,0.0068
2349.00,0.0068
2336.00,0.0071
2323.00,0.0080
2310.00,0.0071
2297.00,0.0075
2284.00,0.0082
2271.00,0.0076
2258.00,0.0075
2245.00,0.0073
2232.00,0.0075
2219.00,0.0071
2206.00,0.0070
2193.00,0.0070
2180.00,0.0067
2167.00,0.0079
2154.00,0.0042
2141.00,0.0052
2128.00,0.0052
2115.00,0.0064
2102.00,0.0061
2089.00,0.0060
2076.00,0.0063
2063.00,0.0056
2050.00,0.0066
2037.00,0.0049
2024.00,0.0047
2011.00,0.0049
1998.00,0.0047
1985.00,0.0061
1972.00,0.0043
1959.00,0.0043
1946.00,0.0047
1933.00,0.0049
1920.00,0.0053
1907.00,0.0056
1894.00,0.0058
1881.00,0.0058
1868.00,0.0059
1855.00,0.0058
1842.00,0.0059
1829.00,0.0062
1816.00,0.0061
1803.00,0.0074
1790.00,0.0068
1777.00,0.0072
1764.00,0.0071
1751.00,0.0066
1738.00,0.0067
1725.00,0.0069
1712.00,0.0077
1699.00,0.0086
1686.00,0.0085
1673.00,0.0092
1660.00,0.0127
1647.00,0.0324
1634.00,0.0646
1621.00,0.0954
1608.00,0.0276
1595.00,0.0311
1582.00,0.1182
1569.00,0.0385
1556.00,0.0172
1543.00,0.0133
1530.00,0.0134
1517.00,0.0284
1504.00,0.0200
1491.00,0.0135
1478.00,0.0137
1465.00,0.0420
1452.00,0.0768
1439.00,0.1370
1426.00,0.0553
1413.00,0.0196
1400.00,0.0154
1387.00,0.0154
1374.00,0.0600
1361.00,0.0275
1348.00,0.0282
1335.00,0.0280
1322.00,0.0392
1309.00,0.0594
1296.00,0.0568
1283.00,0.0548
1270.00,0.0388
1257.00,0.0186
1244.00,0.0325
1231.00,0.0646
1218.00,0.1505
1205.00,0.0970
1192.00,0.0396
1179.00,0.0527
1166.00,0.0331
1153.00,0.0488
1140.00,0.0211
1127.00,0.0166
1114.00,0.0160
1101.00,0.0293
1088.00,0.0187
1075.00,0.0253
1062.00,0.0216
1049.00,0.0709
1036.00,0.0611
1023.00,0.0791
1010.00,0.0597
997.00,0.0521
984.00,0.0427
971.00,0.0292
958.00,0.0399
945.00,0.0187
932.00,0.0194
919.00,0.0230
906.00,0.0353
893.00,0.0931
880.00,0.0978
867.00,0.0546
854.00,0.0750
841.00,0.0599
828.00,0.0773
815.00,0.0323
802.00,0.0575
789.00,0.0278
776.00,0.0239
763.00,0.0186
750.00,0.0313
737.00,0.0194
724.00,0.0224
711.00,0.0172
698.00,0.0143
685.00,0.0149
672.00,0.0230
659.00,0.0323
646.00,0.0320
633.00,0.0253
620.00,0.0287
607.00,0.0349
594.00,0.0439
581.00,0.0501
568.00,0.0465
555.00,0.0484
542.00,0.0654
529.00,0.0764
516.00,0.0687
503.00,0.0873
490.00,0.1091
477.00,0.0921
464.00,0.1044
451.00,0.0982
438.00,0.0804
425.00,0.1048
412.00,0.1019
400.00,0.1271