File: FTIR/Olivia/2025_06_05_CBD_Powder_scan3.csv
Created as New Dataset,Sample 584 By YargerLab Date Thursday, June 05 2025
cm-1,A
4000.00,0.0082
3987.00,0.0081
3974.00,0.0081
3961.00,0.0082
3948.00,0.0083
3935.00,0.0082
3922.00,0.0084
3909.00,0.0082
3896.00,0.0080
3883.00,0.0079
3870.00,0.0078
3857.00,0.0079
3844.00,0.0079
3831.00,0.0077
3818.00,0.0076
3805.00,0.0076
3792.00,0.0076
3779.00,0.0077
3766.00,0.0075
3753.00,0.0075
3740.00,0.0073
3727.00,0.0072
3714.00,0.0072
3701.00,0.0071
3688.00,0.0069
3675.00,0.0068
3662.00,0.0067
3649.00,0.0065
3636.00,0.0066
3623.00,0.0068
3610.00,0.0070
3597.00,0.0071
3584.00,0.0074
3571.00,0.0079
3558.00,0.0091
3545.00,0.0123
3532.00,0.0252
3519.00,0.0569
3506.00,0.0308
3493.00,0.0267
3480.00,0.0307
3467.00,0.0388
3454.00,0.0493
3441.00,0.0593
3428.00,0.0684
3415.00,0.0824
3402.00,0.0819
3389.00,0.0511
3376.00,0.0349
3363.00,0.0262
3350.00,0.0209
3337.00,0.0174
3324.00,0.0152
3311.00,0.0136
3298.00,0.0123
3285.00,0.0113
3272.00,0.0104
3259.00,0.0102
3246.00,0.0099
3233.00,0.0094
3220.00,0.0093
3207.00,0.0092
3194.00,0.0090
3181.00,0.0091
3168.00,0.0093
3155.00,0.0091
3142.00,0.0089
3129.00,0.0090
3116.00,0.0089
3103.00,0.0090
3090.00,0.0094
3077.00,0.0176
3064.00,0.0112
3051.00,0.0101
3038.00,0.0119
3025.00,0.0116
3012.00,0.0112
2999.00,0.0118
2986.00,0.0148
2973.00,0.0312
2960.00,0.0484
2947.00,0.0410
2934.00,0.0725
2921.00,0.0951
2908.00,0.0708
2895.00,0.0468
2882.00,0.0389
2869.00,0.0441
2856.00,0.0721
2843.00,0.0303
2830.00,0.0393
2817.00,0.0177
2804.00,0.0140
2791.00,0.0122
2778.00,0.0112
2765.00,0.0105
2752.00,0.0103
2739.00,0.0107
2726.00,0.0120
2713.00,0.0102
2700.00,0.0097
2687.00,0.0097
2674.00,0.0102
2661.00,0.0104
2648.00,0.0101
2635.00,0.0098
2622.00,0.0097
2609.00,0.0095
2596.00,0.0094
2583.00,0.0093
2570.00,0.0092
2557.00,0.0092
2544.00,0.0090
2531.00,0.0089
2518.00,0.0089
2505.00,0.0088
2492.00,0.0089
2479.00,0.0090
2466.00,0.0089
2453.00,0.0092
2440.00,0.0086
2427.00,0.0081
2414.00,0.0078
2401.00,0.0076
2388.00,0.0076
2375.00,0.0071
2362.00,0.0071
2349.00,0.0071
2336.00,0.0074
2323.00,0.0081
2310.00,0.0071
2297.00,0.0074
2284.00,0.0080
2271.00,0.0077
2258.00,0.0075
2245.00,0.0073
2232.00,0.0073
2219.00,0.0070
2206.00,0.0070
2193.00,0.0071
2180.00,0.0068
2167.00,0.0078
2154.00,0.0040
2141.00,0.0053
2128.00,0.0052
2115.00,0.0063
2102.00,0.0061
2089.00,0.0059
2076.00,0.0063
2063.00,0.0055
2050.00,0.0063
2037.00,0.0047
2024.00,0.0044
2011.00,0.0052
1998.00,0.0046
1985.00,0.0060
1972.00,0.0044
1959.00,0.0044
1946.00,0.0048
1933.00,0.0050
1920.00,0.0054
1907.00,0.0056
1894.00,0.0058
1881.00,0.0059
1868.00,0.0059
1855.00,0.0059
1842.00,0.0058
1829.00,0.0061
1816.00,0.0062
1803.00,0.0075
1790.00,0.0068
1777.00,0.0072
1764.00,0.0071
1751.00,0.0066
1738.00,0.0068
1725.00,0.0069
1712.00,0.0077
1699.00,0.0085
1686.00,0.0084
1673.00,0.0092
1660.00,0.0128
1647.00,0.0320
1634.00,0.0642
1621.00,0.0955
1608.00,0.0277
1595.00,0.0308
1582.00,0.1176
1569.00,0.0386
1556.00,0.0172
1543.00,0.0133
1530.00,0.0133
1517.00,0.0282
1504.00,0.0201
1491.00,0.0136
1478.00,0.0137
1465.00,0.0418
1452.00,0.0762
1439.00,0.1367
1426.00,0.0550
1413.00,0.0196
1400.00,0.0154
1387.00,0.0153
1374.00,0.0597
1361.00,0.0274
1348.00,0.0281
1335.00,0.0281
1322.00,0.0392
1309.00,0.0592
1296.00,0.0567
1283.00,0.0545
1270.00,0.0387
1257.00,0.0186
1244.00,0.0324
1231.00,0.0645
1218.00,0.1496
1205.00,0.0967
1192.00,0.0393
1179.00,0.0525
1166.00,0.0331
1153.00,0.0485
1140.00,0.0210
1127.00,0.0167
1114.00,0.0160
1101.00,0.0293
1088.00,0.0187
1075.00,0.0252
1062.00,0.0216
1049.00,0.0709
1036.00,0.0606
1023.00,0.0786
1010.00,0.0595
997.00,0.0522
984.00,0.0427
971.00,0.0291
958.00,0.0398
945.00,0.0188
932.00,0.0194
919.00,0.0230
906.00,0.0350
893.00,0.0933
880.00,0.0975
867.00,0.0544
854.00,0.0745
841.00,0.0595
828.00,0.0768
815.00,0.0321
802.00,0.0573
789.00,0.0278
776.00,0.0238
763.00,0.0186
750.00,0.0311
737.00,0.0195
724.00,0.0222
711.00,0.0171
698.00,0.0143
685.00,0.0151
672.00,0.0230
659.00,0.0321
646.00,0.0318
633.00,0.0251
620.00,0.0286
607.00,0.0347
594.00,0.0434
581.00,0.0498
568.00,0.0462
555.00,0.0481
542.00,0.0643
529.00,0.0751
516.00,0.0681
503.00,0.0858
490.00,0.1078
477.00,0.0911
464.00,0.1024
451.00,0.0962
438.00,0.0793
425.00,0.1038
412.00,0.1012
400.00,0.1265