File: FTIR/Olivia/2025_06_06_Crystalline_Nifedipine_05_25_DSC_Scan2.csv
Created as New Dataset,Sample 627 By YargerLab Date Friday, June 06 2025
cm-1,A
4000.00,0.0070
3987.00,0.0069
3974.00,0.0069
3961.00,0.0069
3948.00,0.0069
3935.00,0.0069
3922.00,0.0069
3909.00,0.0068
3896.00,0.0068
3883.00,0.0067
3870.00,0.0067
3857.00,0.0065
3844.00,0.0066
3831.00,0.0066
3818.00,0.0065
3805.00,0.0066
3792.00,0.0066
3779.00,0.0066
3766.00,0.0066
3753.00,0.0065
3740.00,0.0065
3727.00,0.0065
3714.00,0.0064
3701.00,0.0064
3688.00,0.0059
3675.00,0.0053
3662.00,0.0050
3649.00,0.0051
3636.00,0.0054
3623.00,0.0060
3610.00,0.0061
3597.00,0.0060
3584.00,0.0061
3571.00,0.0060
3558.00,0.0060
3545.00,0.0061
3532.00,0.0061
3519.00,0.0061
3506.00,0.0060
3493.00,0.0060
3480.00,0.0060
3467.00,0.0060
3454.00,0.0059
3441.00,0.0059
3428.00,0.0061
3415.00,0.0064
3402.00,0.0068
3389.00,0.0081
3376.00,0.0104
3363.00,0.0138
3350.00,0.0220
3337.00,0.0432
3324.00,0.0514
3311.00,0.0383
3298.00,0.0278
3285.00,0.0228
3272.00,0.0198
3259.00,0.0194
3246.00,0.0186
3233.00,0.0173
3220.00,0.0141
3207.00,0.0121
3194.00,0.0108
3181.00,0.0104
3168.00,0.0100
3155.00,0.0099
3142.00,0.0103
3129.00,0.0109
3116.00,0.0125
3103.00,0.0151
3090.00,0.0133
3077.00,0.0131
3064.00,0.0117
3051.00,0.0107
3038.00,0.0114
3025.00,0.0121
3012.00,0.0108
2999.00,0.0123
2986.00,0.0055
2973.00,0.0035
2960.00,0.0149
2947.00,0.0157
2934.00,0.0123
2921.00,0.0108
2908.00,0.0092
2895.00,0.0077
2882.00,0.0080
2869.00,0.0102
2856.00,0.0099
2843.00,0.0121
2830.00,0.0097
2817.00,0.0095
2804.00,0.0096
2791.00,0.0086
2778.00,0.0080
2765.00,0.0080
2752.00,0.0079
2739.00,0.0077
2726.00,0.0077
2713.00,0.0078
2700.00,0.0078
2687.00,0.0077
2674.00,0.0076
2661.00,0.0077
2648.00,0.0079
2635.00,0.0078
2622.00,0.0080
2609.00,0.0078
2596.00,0.0075
2583.00,0.0073
2570.00,0.0070
2557.00,0.0070
2544.00,0.0070
2531.00,0.0070
2518.00,0.0067
2505.00,0.0065
2492.00,0.0068
2479.00,0.0065
2466.00,0.0066
2453.00,0.0070
2440.00,0.0066
2427.00,0.0064
2414.00,0.0063
2401.00,0.0061
2388.00,0.0060
2375.00,0.0059
2362.00,0.0059
2349.00,0.0058
2336.00,0.0061
2323.00,0.0068
2310.00,0.0057
2297.00,0.0060
2284.00,0.0067
2271.00,0.0062
2258.00,0.0056
2245.00,0.0051
2232.00,0.0047
2219.00,0.0047
2206.00,0.0043
2193.00,0.0045
2180.00,0.0042
2167.00,0.0058
2154.00,0.0027
2141.00,0.0031
2128.00,0.0035
2115.00,0.0045
2102.00,0.0046
2089.00,0.0046
2076.00,0.0049
2063.00,0.0042
2050.00,0.0042
2037.00,0.0022
2024.00,0.0023
2011.00,0.0030
1998.00,0.0038
1985.00,0.0041
1972.00,0.0031
1959.00,0.0032
1946.00,0.0035
1933.00,0.0041
1920.00,0.0046
1907.00,0.0040
1894.00,0.0039
1881.00,0.0037
1868.00,0.0042
1855.00,0.0041
1842.00,0.0041
1829.00,0.0041
1816.00,0.0036
1803.00,0.0045
1790.00,0.0047
1777.00,0.0046
1764.00,0.0053
1751.00,0.0064
1738.00,0.0074
1725.00,0.0093
1712.00,0.0186
1699.00,0.0403
1686.00,0.1290
1673.00,0.1329
1660.00,0.0548
1647.00,0.0799
1634.00,0.0506
1621.00,0.0657
1608.00,0.0471
1595.00,0.0279
1582.00,0.0179
1569.00,0.0186
1556.00,0.0153
1543.00,0.0217
1530.00,0.1170
1517.00,0.0770
1504.00,0.0768
1491.00,0.1244
1478.00,0.0787
1465.00,0.0581
1452.00,0.0506
1439.00,0.0762
1426.00,0.0908
1413.00,0.0406
1400.00,0.0255
1387.00,0.0338
1374.00,0.0335
1361.00,0.0379
1348.00,0.1265
1335.00,0.0793
1322.00,0.0741
1309.00,0.1176
1296.00,0.0703
1283.00,0.0589
1270.00,0.0579
1257.00,0.0326
1244.00,0.0411
1231.00,0.1391
1218.00,0.1793
1205.00,0.0965
1192.00,0.1232
1179.00,0.0755
1166.00,0.0718
1153.00,0.0770
1140.00,0.0426
1127.00,0.0812
1114.00,0.1352
1101.00,0.1419
1088.00,0.0714
1075.00,0.0474
1062.00,0.0475
1049.00,0.0729
1036.00,0.0601
1023.00,0.1166
1010.00,0.0699
997.00,0.0449
984.00,0.0349
971.00,0.0311
958.00,0.0332
945.00,0.0268
932.00,0.0233
919.00,0.0224
906.00,0.0208
893.00,0.0195
880.00,0.0195
867.00,0.0178
854.00,0.0311
841.00,0.0223
828.00,0.0980
815.00,0.0288
802.00,0.0262
789.00,0.0745
776.00,0.0350
763.00,0.0907
750.00,0.0554
737.00,0.0513
724.00,0.0285
711.00,0.1173
698.00,0.0449
685.00,0.0860
672.00,0.0695
659.00,0.0558
646.00,0.0336
633.00,0.0280
620.00,0.0655
607.00,0.0499
594.00,0.0380
581.00,0.0422
568.00,0.0369
555.00,0.0287
542.00,0.0238
529.00,0.0218
516.00,0.0217
503.00,0.0206
490.00,0.0189
477.00,0.0249
464.00,0.0431
451.00,0.0253
438.00,0.0221
425.00,0.0230
412.00,0.0475
400.00,0.0319