File: FTIR/Olivia/2025_07_15_Polystyrene_Std_scan3.csv
Created as New Dataset,Sample 821 By YargerLab Date Tuesday, July 15 2025
cm-1,A
4000.00,0.0014
3987.00,0.0014
3974.00,0.0014
3961.00,0.0014
3948.00,0.0013
3935.00,0.0013
3922.00,0.0012
3909.00,0.0013
3896.00,0.0011
3883.00,0.0010
3870.00,0.0009
3857.00,0.0010
3844.00,0.0012
3831.00,0.0012
3818.00,0.0010
3805.00,0.0011
3792.00,0.0013
3779.00,0.0013
3766.00,0.0013
3753.00,0.0010
3740.00,0.0009
3727.00,0.0011
3714.00,0.0010
3701.00,0.0012
3688.00,0.0008
3675.00,0.0002
3662.00,0.0003
3649.00,-0.0000
3636.00,0.0006
3623.00,0.0010
3610.00,0.0010
3597.00,0.0013
3584.00,0.0013
3571.00,0.0014
3558.00,0.0015
3545.00,0.0015
3532.00,0.0017
3519.00,0.0017
3506.00,0.0017
3493.00,0.0019
3480.00,0.0018
3467.00,0.0019
3454.00,0.0020
3441.00,0.0020
3428.00,0.0019
3415.00,0.0019
3402.00,0.0020
3389.00,0.0019
3376.00,0.0019
3363.00,0.0019
3350.00,0.0019
3337.00,0.0019
3324.00,0.0019
3311.00,0.0019
3298.00,0.0019
3285.00,0.0018
3272.00,0.0019
3259.00,0.0018
3246.00,0.0017
3233.00,0.0016
3220.00,0.0016
3207.00,0.0017
3194.00,0.0016
3181.00,0.0015
3168.00,0.0017
3155.00,0.0016
3142.00,0.0016
3129.00,0.0016
3116.00,0.0021
3103.00,0.0038
3090.00,0.0051
3077.00,0.0074
3064.00,0.0106
3051.00,0.0079
3038.00,0.0085
3025.00,0.0237
3012.00,0.0058
2999.00,0.0022
2986.00,-0.0032
2973.00,-0.0041
2960.00,0.0005
2947.00,0.0067
2934.00,0.0177
2921.00,0.0262
2908.00,0.0193
2895.00,0.0101
2882.00,0.0062
2869.00,0.0055
2856.00,0.0098
2843.00,0.0099
2830.00,0.0034
2817.00,0.0025
2804.00,0.0024
2791.00,0.0021
2778.00,0.0020
2765.00,0.0019
2752.00,0.0018
2739.00,0.0019
2726.00,0.0019
2713.00,0.0019
2700.00,0.0019
2687.00,0.0019
2674.00,0.0018
2661.00,0.0021
2648.00,0.0023
2635.00,0.0023
2622.00,0.0022
2609.00,0.0021
2596.00,0.0020
2583.00,0.0020
2570.00,0.0017
2557.00,0.0017
2544.00,0.0016
2531.00,0.0016
2518.00,0.0015
2505.00,0.0015
2492.00,0.0014
2479.00,0.0014
2466.00,0.0014
2453.00,0.0015
2440.00,0.0013
2427.00,0.0012
2414.00,0.0011
2401.00,0.0010
2388.00,0.0010
2375.00,0.0010
2362.00,0.0011
2349.00,0.0013
2336.00,0.0016
2323.00,0.0026
2310.00,0.0021
2297.00,0.0019
2284.00,0.0022
2271.00,0.0018
2258.00,0.0018
2245.00,0.0015
2232.00,0.0015
2219.00,0.0013
2206.00,0.0013
2193.00,0.0015
2180.00,0.0008
2167.00,0.0023
2154.00,-0.0012
2141.00,-0.0004
2128.00,-0.0003
2115.00,0.0009
2102.00,0.0007
2089.00,0.0008
2076.00,0.0010
2063.00,0.0008
2050.00,0.0016
2037.00,0.0008
2024.00,0.0002
2011.00,0.0002
1998.00,0.0004
1985.00,0.0015
1972.00,0.0001
1959.00,0.0014
1946.00,0.0031
1933.00,0.0020
1920.00,0.0008
1907.00,0.0007
1894.00,0.0016
1881.00,0.0028
1868.00,0.0032
1855.00,0.0015
1842.00,0.0010
1829.00,0.0014
1816.00,0.0023
1803.00,0.0039
1790.00,0.0023
1777.00,0.0018
1764.00,0.0021
1751.00,0.0037
1738.00,0.0043
1725.00,0.0035
1712.00,0.0029
1699.00,0.0029
1686.00,0.0036
1673.00,0.0042
1660.00,0.0041
1647.00,0.0033
1634.00,0.0029
1621.00,0.0032
1608.00,0.0094
1595.00,0.0123
1582.00,0.0098
1569.00,0.0031
1556.00,0.0028
1543.00,0.0041
1530.00,0.0030
1517.00,0.0029
1504.00,0.0051
1491.00,0.0536
1478.00,0.0065
1465.00,0.0063
1452.00,0.0587
1439.00,0.0217
1426.00,0.0066
1413.00,0.0044
1400.00,0.0028
1387.00,0.0050
1374.00,0.0105
1361.00,0.0110
1348.00,0.0102
1335.00,0.0092
1322.00,0.0101
1309.00,0.0104
1296.00,0.0086
1283.00,0.0075
1270.00,0.0050
1257.00,0.0038
1244.00,0.0042
1231.00,0.0046
1218.00,0.0056
1205.00,0.0074
1192.00,0.0090
1179.00,0.0107
1166.00,0.0049
1153.00,0.0093
1140.00,0.0028
1127.00,0.0032
1114.00,0.0057
1101.00,0.0060
1088.00,0.0069
1075.00,0.0122
1062.00,0.0126
1049.00,0.0089
1036.00,0.0133
1023.00,0.0230
1010.00,0.0123
997.00,0.0098
984.00,0.0110
971.00,0.0090
958.00,0.0077
945.00,0.0078
932.00,0.0064
919.00,0.0088
906.00,0.0217
893.00,0.0080
880.00,0.0057
867.00,0.0050
854.00,0.0056
841.00,0.0109
828.00,0.0046
815.00,0.0044
802.00,0.0054
789.00,0.0110
776.00,0.0275
763.00,0.0725
750.00,0.0947
737.00,0.0400
724.00,0.0111
711.00,0.0249
698.00,0.2546
685.00,0.0940
672.00,0.0415
659.00,0.0245
646.00,0.0153
633.00,0.0170
620.00,0.0207
607.00,0.0155
594.00,0.0178
581.00,0.0227
568.00,0.0383
555.00,0.0557
542.00,0.0888
529.00,0.0638
516.00,0.0311
503.00,0.0207
490.00,0.0158
477.00,0.0138
464.00,0.0126
451.00,0.0116
438.00,0.0105
425.00,0.0099
412.00,0.0085
400.00,0.0088