File: FTIR/Olivia/2025_08_07_Polystyrene_film_scan3.csv
Created as New Dataset,Sample 014 By YargerLab Date Thursday, August 07 2025
cm-1,A
4000.00,0.0006
3987.00,0.0006
3974.00,0.0005
3961.00,0.0006
3948.00,0.0005
3935.00,0.0006
3922.00,0.0006
3909.00,0.0006
3896.00,0.0006
3883.00,0.0006
3870.00,0.0006
3857.00,0.0007
3844.00,0.0006
3831.00,0.0007
3818.00,0.0007
3805.00,0.0007
3792.00,0.0007
3779.00,0.0006
3766.00,0.0007
3753.00,0.0008
3740.00,0.0007
3727.00,0.0007
3714.00,0.0006
3701.00,0.0006
3688.00,0.0007
3675.00,0.0006
3662.00,0.0006
3649.00,0.0007
3636.00,0.0006
3623.00,0.0006
3610.00,0.0005
3597.00,0.0005
3584.00,0.0005
3571.00,0.0005
3558.00,0.0006
3545.00,0.0006
3532.00,0.0006
3519.00,0.0007
3506.00,0.0007
3493.00,0.0008
3480.00,0.0008
3467.00,0.0007
3454.00,0.0008
3441.00,0.0008
3428.00,0.0008
3415.00,0.0008
3402.00,0.0008
3389.00,0.0009
3376.00,0.0008
3363.00,0.0008
3350.00,0.0008
3337.00,0.0008
3324.00,0.0008
3311.00,0.0008
3298.00,0.0009
3285.00,0.0008
3272.00,0.0008
3259.00,0.0008
3246.00,0.0008
3233.00,0.0008
3220.00,0.0008
3207.00,0.0008
3194.00,0.0007
3181.00,0.0007
3168.00,0.0008
3155.00,0.0007
3142.00,0.0007
3129.00,0.0007
3116.00,0.0010
3103.00,0.0021
3090.00,0.0033
3077.00,0.0043
3064.00,0.0064
3051.00,0.0046
3038.00,0.0055
3025.00,0.0136
3012.00,0.0042
2999.00,0.0039
2986.00,0.0022
2973.00,0.0026
2960.00,0.0039
2947.00,0.0069
2934.00,0.0133
2921.00,0.0174
2908.00,0.0135
2895.00,0.0083
2882.00,0.0060
2869.00,0.0050
2856.00,0.0072
2843.00,0.0063
2830.00,0.0024
2817.00,0.0018
2804.00,0.0015
2791.00,0.0013
2778.00,0.0013
2765.00,0.0011
2752.00,0.0011
2739.00,0.0010
2726.00,0.0011
2713.00,0.0011
2700.00,0.0010
2687.00,0.0010
2674.00,0.0011
2661.00,0.0014
2648.00,0.0016
2635.00,0.0017
2622.00,0.0014
2609.00,0.0015
2596.00,0.0012
2583.00,0.0012
2570.00,0.0010
2557.00,0.0009
2544.00,0.0009
2531.00,0.0008
2518.00,0.0008
2505.00,0.0007
2492.00,0.0007
2479.00,0.0006
2466.00,0.0006
2453.00,0.0007
2440.00,0.0005
2427.00,0.0004
2414.00,0.0004
2401.00,0.0002
2388.00,0.0001
2375.00,0.0001
2362.00,0.0002
2349.00,0.0003
2336.00,0.0008
2323.00,0.0018
2310.00,0.0011
2297.00,0.0013
2284.00,0.0015
2271.00,0.0012
2258.00,0.0009
2245.00,0.0008
2232.00,0.0006
2219.00,0.0006
2206.00,0.0007
2193.00,0.0010
2180.00,0.0005
2167.00,0.0014
2154.00,-0.0020
2141.00,-0.0014
2128.00,-0.0010
2115.00,0.0003
2102.00,0.0002
2089.00,0.0002
2076.00,0.0004
2063.00,0.0002
2050.00,0.0010
2037.00,0.0009
2024.00,-0.0004
2011.00,0.0000
1998.00,0.0002
1985.00,0.0011
1972.00,-0.0005
1959.00,-0.0003
1946.00,0.0014
1933.00,0.0005
1920.00,0.0002
1907.00,0.0001
1894.00,0.0007
1881.00,0.0012
1868.00,0.0015
1855.00,0.0005
1842.00,0.0002
1829.00,0.0005
1816.00,0.0009
1803.00,0.0019
1790.00,0.0012
1777.00,0.0010
1764.00,0.0012
1751.00,0.0022
1738.00,0.0025
1725.00,0.0020
1712.00,0.0017
1699.00,0.0016
1686.00,0.0017
1673.00,0.0019
1660.00,0.0019
1647.00,0.0015
1634.00,0.0013
1621.00,0.0017
1608.00,0.0056
1595.00,0.0064
1582.00,0.0053
1569.00,0.0014
1556.00,0.0013
1543.00,0.0019
1530.00,0.0013
1517.00,0.0011
1504.00,0.0029
1491.00,0.0273
1478.00,0.0037
1465.00,0.0039
1452.00,0.0310
1439.00,0.0121
1426.00,0.0040
1413.00,0.0030
1400.00,0.0030
1387.00,0.0046
1374.00,0.0070
1361.00,0.0066
1348.00,0.0059
1335.00,0.0054
1322.00,0.0057
1309.00,0.0058
1296.00,0.0049
1283.00,0.0045
1270.00,0.0036
1257.00,0.0032
1244.00,0.0034
1231.00,0.0034
1218.00,0.0034
1205.00,0.0041
1192.00,0.0053
1179.00,0.0067
1166.00,0.0042
1153.00,0.0070
1140.00,0.0031
1127.00,0.0030
1114.00,0.0038
1101.00,0.0041
1088.00,0.0050
1075.00,0.0082
1062.00,0.0080
1049.00,0.0053
1036.00,0.0076
1023.00,0.0117
1010.00,0.0067
997.00,0.0054
984.00,0.0062
971.00,0.0061
958.00,0.0057
945.00,0.0054
932.00,0.0040
919.00,0.0047
906.00,0.0104
893.00,0.0041
880.00,0.0028
867.00,0.0024
854.00,0.0027
841.00,0.0053
828.00,0.0024
815.00,0.0021
802.00,0.0024
789.00,0.0049
776.00,0.0131
763.00,0.0324
750.00,0.0410
737.00,0.0192
724.00,0.0050
711.00,0.0127
698.00,0.0899
685.00,0.0356
672.00,0.0170
659.00,0.0107
646.00,0.0073
633.00,0.0079
620.00,0.0092
607.00,0.0073
594.00,0.0081
581.00,0.0104
568.00,0.0165
555.00,0.0230
542.00,0.0357
529.00,0.0259
516.00,0.0139
503.00,0.0099
490.00,0.0074
477.00,0.0072
464.00,0.0067
451.00,0.0063
438.00,0.0052
425.00,0.0042
412.00,0.0054
400.00,0.0047