File: FTIR/Olivia/2025_08_04_1CBN_3PVP10kDa_MortPest_powder_scan2.csv
Created as New Dataset,Sample 1033 By YargerLab Date Monday, August 04 2025
cm-1,A
4000.00,0.0102
3987.00,0.0101
3974.00,0.0102
3961.00,0.0101
3948.00,0.0100
3935.00,0.0101
3922.00,0.0100
3909.00,0.0101
3896.00,0.0099
3883.00,0.0099
3870.00,0.0099
3857.00,0.0101
3844.00,0.0099
3831.00,0.0098
3818.00,0.0098
3805.00,0.0099
3792.00,0.0100
3779.00,0.0098
3766.00,0.0098
3753.00,0.0098
3740.00,0.0096
3727.00,0.0097
3714.00,0.0097
3701.00,0.0098
3688.00,0.0097
3675.00,0.0099
3662.00,0.0103
3649.00,0.0102
3636.00,0.0110
3623.00,0.0114
3610.00,0.0121
3597.00,0.0132
3584.00,0.0143
3571.00,0.0157
3558.00,0.0170
3545.00,0.0181
3532.00,0.0192
3519.00,0.0200
3506.00,0.0207
3493.00,0.0214
3480.00,0.0223
3467.00,0.0232
3454.00,0.0242
3441.00,0.0251
3428.00,0.0263
3415.00,0.0276
3402.00,0.0282
3389.00,0.0275
3376.00,0.0262
3363.00,0.0250
3350.00,0.0240
3337.00,0.0235
3324.00,0.0232
3311.00,0.0231
3298.00,0.0233
3285.00,0.0237
3272.00,0.0236
3259.00,0.0239
3246.00,0.0238
3233.00,0.0236
3220.00,0.0230
3207.00,0.0220
3194.00,0.0208
3181.00,0.0197
3168.00,0.0186
3155.00,0.0174
3142.00,0.0164
3129.00,0.0157
3116.00,0.0151
3103.00,0.0144
3090.00,0.0143
3077.00,0.0141
3064.00,0.0138
3051.00,0.0139
3038.00,0.0139
3025.00,0.0139
3012.00,0.0140
2999.00,0.0168
2986.00,0.0222
2973.00,0.0284
2960.00,0.0343
2947.00,0.0311
2934.00,0.0370
2921.00,0.0411
2908.00,0.0320
2895.00,0.0281
2882.00,0.0270
2869.00,0.0287
2856.00,0.0329
2843.00,0.0240
2830.00,0.0188
2817.00,0.0164
2804.00,0.0153
2791.00,0.0147
2778.00,0.0142
2765.00,0.0139
2752.00,0.0138
2739.00,0.0139
2726.00,0.0140
2713.00,0.0137
2700.00,0.0136
2687.00,0.0133
2674.00,0.0133
2661.00,0.0136
2648.00,0.0138
2635.00,0.0135
2622.00,0.0133
2609.00,0.0132
2596.00,0.0131
2583.00,0.0132
2570.00,0.0130
2557.00,0.0129
2544.00,0.0127
2531.00,0.0126
2518.00,0.0125
2505.00,0.0123
2492.00,0.0122
2479.00,0.0121
2466.00,0.0119
2453.00,0.0121
2440.00,0.0121
2427.00,0.0119
2414.00,0.0120
2401.00,0.0118
2388.00,0.0117
2375.00,0.0115
2362.00,0.0115
2349.00,0.0117
2336.00,0.0119
2323.00,0.0129
2310.00,0.0119
2297.00,0.0124
2284.00,0.0128
2271.00,0.0123
2258.00,0.0120
2245.00,0.0118
2232.00,0.0120
2219.00,0.0119
2206.00,0.0119
2193.00,0.0122
2180.00,0.0117
2167.00,0.0126
2154.00,0.0093
2141.00,0.0103
2128.00,0.0106
2115.00,0.0116
2102.00,0.0116
2089.00,0.0115
2076.00,0.0116
2063.00,0.0111
2050.00,0.0120
2037.00,0.0110
2024.00,0.0104
2011.00,0.0102
1998.00,0.0101
1985.00,0.0108
1972.00,0.0094
1959.00,0.0092
1946.00,0.0099
1933.00,0.0098
1920.00,0.0103
1907.00,0.0107
1894.00,0.0105
1881.00,0.0102
1868.00,0.0104
1855.00,0.0101
1842.00,0.0102
1829.00,0.0101
1816.00,0.0097
1803.00,0.0102
1790.00,0.0099
1777.00,0.0101
1764.00,0.0102
1751.00,0.0104
1738.00,0.0104
1725.00,0.0116
1712.00,0.0141
1699.00,0.0260
1686.00,0.0602
1673.00,0.0972
1660.00,0.1201
1647.00,0.1180
1634.00,0.0818
1621.00,0.0771
1608.00,0.0548
1595.00,0.0356
1582.00,0.0433
1569.00,0.0314
1556.00,0.0229
1543.00,0.0210
1530.00,0.0196
1517.00,0.0207
1504.00,0.0260
1491.00,0.0391
1478.00,0.0248
1465.00,0.0537
1452.00,0.0480
1439.00,0.0702
1426.00,0.0904
1413.00,0.0661
1400.00,0.0537
1387.00,0.0425
1374.00,0.0454
1361.00,0.0471
1348.00,0.0366
1335.00,0.0322
1322.00,0.0409
1309.00,0.0401
1296.00,0.0642
1283.00,0.1019
1270.00,0.0915
1257.00,0.0606
1244.00,0.0535
1231.00,0.0635
1218.00,0.0572
1205.00,0.0476
1192.00,0.0541
1179.00,0.0402
1166.00,0.0423
1153.00,0.0517
1140.00,0.0341
1127.00,0.0520
1114.00,0.0367
1101.00,0.0415
1088.00,0.0323
1075.00,0.0325
1062.00,0.0376
1049.00,0.0603
1036.00,0.0403
1023.00,0.0518
1010.00,0.0355
997.00,0.0384
984.00,0.0301
971.00,0.0281
958.00,0.0270
945.00,0.0258
932.00,0.0319
919.00,0.0298
906.00,0.0264
893.00,0.0304
880.00,0.0270
867.00,0.0415
854.00,0.0396
841.00,0.0424
828.00,0.0387
815.00,0.0490
802.00,0.0274
789.00,0.0266
776.00,0.0294
763.00,0.0307
750.00,0.0355
737.00,0.0469
724.00,0.0424
711.00,0.0400
698.00,0.0422
685.00,0.0461
672.00,0.0537
659.00,0.0623
646.00,0.0672
633.00,0.0610
620.00,0.0613
607.00,0.0614
594.00,0.0681
581.00,0.0757
568.00,0.0787
555.00,0.0761
542.00,0.0748
529.00,0.0744
516.00,0.0681
503.00,0.0693
490.00,0.0703
477.00,0.0693
464.00,0.0690
451.00,0.0667
438.00,0.0646
425.00,0.0604
412.00,0.0595
400.00,0.0552