File: FTIR/Olivia/2025_08_04_1CBN_3PVP29kDa_MortPest_powder_scan1.csv
Created as New Dataset,Sample 1039 By YargerLab Date Monday, August 04 2025
cm-1,A
4000.00,0.0067
3987.00,0.0068
3974.00,0.0068
3961.00,0.0067
3948.00,0.0067
3935.00,0.0067
3922.00,0.0067
3909.00,0.0067
3896.00,0.0067
3883.00,0.0067
3870.00,0.0066
3857.00,0.0067
3844.00,0.0067
3831.00,0.0067
3818.00,0.0067
3805.00,0.0067
3792.00,0.0066
3779.00,0.0067
3766.00,0.0067
3753.00,0.0068
3740.00,0.0068
3727.00,0.0066
3714.00,0.0066
3701.00,0.0066
3688.00,0.0068
3675.00,0.0072
3662.00,0.0076
3649.00,0.0082
3636.00,0.0089
3623.00,0.0100
3610.00,0.0113
3597.00,0.0127
3584.00,0.0144
3571.00,0.0165
3558.00,0.0185
3545.00,0.0206
3532.00,0.0224
3519.00,0.0240
3506.00,0.0253
3493.00,0.0265
3480.00,0.0279
3467.00,0.0293
3454.00,0.0308
3441.00,0.0323
3428.00,0.0341
3415.00,0.0361
3402.00,0.0371
3389.00,0.0363
3376.00,0.0346
3363.00,0.0327
3350.00,0.0312
3337.00,0.0303
3324.00,0.0298
3311.00,0.0297
3298.00,0.0300
3285.00,0.0305
3272.00,0.0303
3259.00,0.0306
3246.00,0.0304
3233.00,0.0296
3220.00,0.0286
3207.00,0.0269
3194.00,0.0249
3181.00,0.0229
3168.00,0.0210
3155.00,0.0191
3142.00,0.0175
3129.00,0.0162
3116.00,0.0152
3103.00,0.0142
3090.00,0.0137
3077.00,0.0133
3064.00,0.0129
3051.00,0.0128
3038.00,0.0128
3025.00,0.0128
3012.00,0.0130
2999.00,0.0169
2986.00,0.0233
2973.00,0.0307
2960.00,0.0380
2947.00,0.0340
2934.00,0.0424
2921.00,0.0462
2908.00,0.0339
2895.00,0.0292
2882.00,0.0276
2869.00,0.0295
2856.00,0.0352
2843.00,0.0227
2830.00,0.0163
2817.00,0.0136
2804.00,0.0124
2791.00,0.0117
2778.00,0.0111
2765.00,0.0108
2752.00,0.0107
2739.00,0.0108
2726.00,0.0110
2713.00,0.0106
2700.00,0.0104
2687.00,0.0102
2674.00,0.0101
2661.00,0.0106
2648.00,0.0107
2635.00,0.0104
2622.00,0.0101
2609.00,0.0099
2596.00,0.0100
2583.00,0.0101
2570.00,0.0099
2557.00,0.0097
2544.00,0.0095
2531.00,0.0095
2518.00,0.0092
2505.00,0.0091
2492.00,0.0090
2479.00,0.0088
2466.00,0.0088
2453.00,0.0089
2440.00,0.0088
2427.00,0.0087
2414.00,0.0087
2401.00,0.0087
2388.00,0.0084
2375.00,0.0083
2362.00,0.0083
2349.00,0.0086
2336.00,0.0090
2323.00,0.0099
2310.00,0.0090
2297.00,0.0093
2284.00,0.0098
2271.00,0.0093
2258.00,0.0089
2245.00,0.0089
2232.00,0.0093
2219.00,0.0089
2206.00,0.0088
2193.00,0.0092
2180.00,0.0086
2167.00,0.0098
2154.00,0.0066
2141.00,0.0072
2128.00,0.0075
2115.00,0.0089
2102.00,0.0086
2089.00,0.0085
2076.00,0.0088
2063.00,0.0082
2050.00,0.0088
2037.00,0.0084
2024.00,0.0073
2011.00,0.0069
1998.00,0.0073
1985.00,0.0078
1972.00,0.0065
1959.00,0.0061
1946.00,0.0068
1933.00,0.0070
1920.00,0.0074
1907.00,0.0080
1894.00,0.0076
1881.00,0.0074
1868.00,0.0075
1855.00,0.0076
1842.00,0.0076
1829.00,0.0075
1816.00,0.0073
1803.00,0.0077
1790.00,0.0078
1777.00,0.0081
1764.00,0.0084
1751.00,0.0087
1738.00,0.0095
1725.00,0.0116
1712.00,0.0155
1699.00,0.0278
1686.00,0.0603
1673.00,0.1025
1660.00,0.1367
1647.00,0.1487
1634.00,0.1189
1621.00,0.1057
1608.00,0.0711
1595.00,0.0436
1582.00,0.0510
1569.00,0.0345
1556.00,0.0233
1543.00,0.0203
1530.00,0.0190
1517.00,0.0204
1504.00,0.0288
1491.00,0.0447
1478.00,0.0266
1465.00,0.0671
1452.00,0.0574
1439.00,0.0889
1426.00,0.1059
1413.00,0.0731
1400.00,0.0596
1387.00,0.0469
1374.00,0.0500
1361.00,0.0512
1348.00,0.0398
1335.00,0.0352
1322.00,0.0477
1309.00,0.0462
1296.00,0.0813
1283.00,0.1199
1270.00,0.1044
1257.00,0.0666
1244.00,0.0601
1231.00,0.0711
1218.00,0.0630
1205.00,0.0516
1192.00,0.0588
1179.00,0.0427
1166.00,0.0443
1153.00,0.0542
1140.00,0.0335
1127.00,0.0557
1114.00,0.0378
1101.00,0.0444
1088.00,0.0337
1075.00,0.0356
1062.00,0.0429
1049.00,0.0686
1036.00,0.0446
1023.00,0.0575
1010.00,0.0378
997.00,0.0414
984.00,0.0311
971.00,0.0283
958.00,0.0264
945.00,0.0254
932.00,0.0323
919.00,0.0298
906.00,0.0264
893.00,0.0317
880.00,0.0284
867.00,0.0449
854.00,0.0441
841.00,0.0476
828.00,0.0438
815.00,0.0565
802.00,0.0327
789.00,0.0333
776.00,0.0373
763.00,0.0405
750.00,0.0478
737.00,0.0624
724.00,0.0578
711.00,0.0562
698.00,0.0596
685.00,0.0652
672.00,0.0747
659.00,0.0850
646.00,0.0919
633.00,0.0857
620.00,0.0866
607.00,0.0867
594.00,0.0947
581.00,0.1033
568.00,0.1069
555.00,0.1037
542.00,0.1029
529.00,0.1023
516.00,0.0955
503.00,0.0952
490.00,0.0966
477.00,0.0956
464.00,0.0947
451.00,0.0917
438.00,0.0888
425.00,0.0855
412.00,0.0853
400.00,0.0861