File: FTIR/Olivia/2025_08_06_1CBN_3PVP90_MP_Powder_Scan1.csv
Created as New Dataset,Sample 002 By YargerLab Date Wednesday, August 06 2025
cm-1,A
4000.00,0.0021
3987.00,0.0022
3974.00,0.0022
3961.00,0.0022
3948.00,0.0021
3935.00,0.0021
3922.00,0.0021
3909.00,0.0022
3896.00,0.0021
3883.00,0.0020
3870.00,0.0020
3857.00,0.0020
3844.00,0.0021
3831.00,0.0021
3818.00,0.0020
3805.00,0.0020
3792.00,0.0021
3779.00,0.0021
3766.00,0.0021
3753.00,0.0020
3740.00,0.0020
3727.00,0.0019
3714.00,0.0019
3701.00,0.0019
3688.00,0.0019
3675.00,0.0017
3662.00,0.0019
3649.00,0.0017
3636.00,0.0018
3623.00,0.0018
3610.00,0.0018
3597.00,0.0018
3584.00,0.0017
3571.00,0.0018
3558.00,0.0019
3545.00,0.0021
3532.00,0.0023
3519.00,0.0024
3506.00,0.0027
3493.00,0.0029
3480.00,0.0033
3467.00,0.0038
3454.00,0.0044
3441.00,0.0051
3428.00,0.0061
3415.00,0.0073
3402.00,0.0082
3389.00,0.0082
3376.00,0.0075
3363.00,0.0069
3350.00,0.0064
3337.00,0.0061
3324.00,0.0061
3311.00,0.0063
3298.00,0.0066
3285.00,0.0071
3272.00,0.0075
3259.00,0.0081
3246.00,0.0086
3233.00,0.0089
3220.00,0.0090
3207.00,0.0086
3194.00,0.0081
3181.00,0.0074
3168.00,0.0068
3155.00,0.0060
3142.00,0.0053
3129.00,0.0048
3116.00,0.0045
3103.00,0.0041
3090.00,0.0040
3077.00,0.0040
3064.00,0.0038
3051.00,0.0039
3038.00,0.0040
3025.00,0.0039
3012.00,0.0036
2999.00,0.0046
2986.00,0.0063
2973.00,0.0096
2960.00,0.0127
2947.00,0.0099
2934.00,0.0159
2921.00,0.0191
2908.00,0.0125
2895.00,0.0093
2882.00,0.0081
2869.00,0.0100
2856.00,0.0150
2843.00,0.0093
2830.00,0.0058
2817.00,0.0046
2804.00,0.0042
2791.00,0.0039
2778.00,0.0036
2765.00,0.0035
2752.00,0.0035
2739.00,0.0036
2726.00,0.0038
2713.00,0.0036
2700.00,0.0035
2687.00,0.0034
2674.00,0.0033
2661.00,0.0037
2648.00,0.0039
2635.00,0.0037
2622.00,0.0035
2609.00,0.0034
2596.00,0.0034
2583.00,0.0034
2570.00,0.0032
2557.00,0.0031
2544.00,0.0030
2531.00,0.0030
2518.00,0.0029
2505.00,0.0027
2492.00,0.0027
2479.00,0.0027
2466.00,0.0027
2453.00,0.0027
2440.00,0.0026
2427.00,0.0024
2414.00,0.0024
2401.00,0.0023
2388.00,0.0021
2375.00,0.0017
2362.00,0.0018
2349.00,0.0019
2336.00,0.0022
2323.00,0.0031
2310.00,0.0021
2297.00,0.0025
2284.00,0.0032
2271.00,0.0028
2258.00,0.0023
2245.00,0.0024
2232.00,0.0026
2219.00,0.0024
2206.00,0.0024
2193.00,0.0024
2180.00,0.0024
2167.00,0.0028
2154.00,0.0004
2141.00,0.0008
2128.00,0.0011
2115.00,0.0020
2102.00,0.0017
2089.00,0.0019
2076.00,0.0021
2063.00,0.0018
2050.00,0.0027
2037.00,0.0023
2024.00,0.0016
2011.00,0.0013
1998.00,0.0017
1985.00,0.0024
1972.00,0.0014
1959.00,0.0008
1946.00,0.0011
1933.00,0.0015
1920.00,0.0018
1907.00,0.0023
1894.00,0.0020
1881.00,0.0018
1868.00,0.0018
1855.00,0.0019
1842.00,0.0020
1829.00,0.0018
1816.00,0.0018
1803.00,0.0020
1790.00,0.0022
1777.00,0.0022
1764.00,0.0022
1751.00,0.0021
1738.00,0.0022
1725.00,0.0026
1712.00,0.0030
1699.00,0.0043
1686.00,0.0076
1673.00,0.0075
1660.00,0.0069
1647.00,0.0062
1634.00,0.0070
1621.00,0.0258
1608.00,0.0197
1595.00,0.0100
1582.00,0.0216
1569.00,0.0132
1556.00,0.0065
1543.00,0.0052
1530.00,0.0047
1517.00,0.0059
1504.00,0.0077
1491.00,0.0115
1478.00,0.0062
1465.00,0.0148
1452.00,0.0133
1439.00,0.0185
1426.00,0.0238
1413.00,0.0178
1400.00,0.0275
1387.00,0.0183
1374.00,0.0145
1361.00,0.0215
1348.00,0.0168
1335.00,0.0122
1322.00,0.0121
1309.00,0.0116
1296.00,0.0188
1283.00,0.0235
1270.00,0.0139
1257.00,0.0106
1244.00,0.0156
1231.00,0.0221
1218.00,0.0159
1205.00,0.0128
1192.00,0.0238
1179.00,0.0101
1166.00,0.0090
1153.00,0.0229
1140.00,0.0091
1127.00,0.0282
1114.00,0.0129
1101.00,0.0177
1088.00,0.0083
1075.00,0.0080
1062.00,0.0143
1049.00,0.0383
1036.00,0.0195
1023.00,0.0293
1010.00,0.0128
997.00,0.0156
984.00,0.0093
971.00,0.0085
958.00,0.0078
945.00,0.0068
932.00,0.0097
919.00,0.0099
906.00,0.0069
893.00,0.0097
880.00,0.0084
867.00,0.0228
854.00,0.0162
841.00,0.0153
828.00,0.0167
815.00,0.0317
802.00,0.0079
789.00,0.0068
776.00,0.0088
763.00,0.0079
750.00,0.0079
737.00,0.0151
724.00,0.0133
711.00,0.0130
698.00,0.0140
685.00,0.0145
672.00,0.0181
659.00,0.0175
646.00,0.0144
633.00,0.0134
620.00,0.0170
607.00,0.0164
594.00,0.0217
581.00,0.0199
568.00,0.0180
555.00,0.0203
542.00,0.0222
529.00,0.0226
516.00,0.0146
503.00,0.0151
490.00,0.0155
477.00,0.0128
464.00,0.0123
451.00,0.0125
438.00,0.0130
425.00,0.0126
412.00,0.0134
400.00,0.0119