File: FTIR/Olivia/2025_06_06_Crystalline_Nifedipine_05_25_DSC_Scan1.csv
Created as New Dataset,Sample 626 By YargerLab Date Friday, June 06 2025
cm-1,A
4000.00,0.0071
3987.00,0.0071
3974.00,0.0071
3961.00,0.0071
3948.00,0.0071
3935.00,0.0072
3922.00,0.0071
3909.00,0.0070
3896.00,0.0070
3883.00,0.0069
3870.00,0.0069
3857.00,0.0068
3844.00,0.0068
3831.00,0.0069
3818.00,0.0068
3805.00,0.0068
3792.00,0.0068
3779.00,0.0068
3766.00,0.0069
3753.00,0.0067
3740.00,0.0067
3727.00,0.0067
3714.00,0.0066
3701.00,0.0066
3688.00,0.0062
3675.00,0.0055
3662.00,0.0052
3649.00,0.0052
3636.00,0.0056
3623.00,0.0061
3610.00,0.0062
3597.00,0.0063
3584.00,0.0062
3571.00,0.0061
3558.00,0.0061
3545.00,0.0063
3532.00,0.0062
3519.00,0.0063
3506.00,0.0062
3493.00,0.0062
3480.00,0.0061
3467.00,0.0061
3454.00,0.0061
3441.00,0.0062
3428.00,0.0063
3415.00,0.0066
3402.00,0.0070
3389.00,0.0082
3376.00,0.0103
3363.00,0.0135
3350.00,0.0212
3337.00,0.0409
3324.00,0.0491
3311.00,0.0371
3298.00,0.0272
3285.00,0.0224
3272.00,0.0195
3259.00,0.0192
3246.00,0.0184
3233.00,0.0171
3220.00,0.0140
3207.00,0.0122
3194.00,0.0109
3181.00,0.0105
3168.00,0.0101
3155.00,0.0100
3142.00,0.0103
3129.00,0.0110
3116.00,0.0125
3103.00,0.0149
3090.00,0.0132
3077.00,0.0130
3064.00,0.0118
3051.00,0.0108
3038.00,0.0114
3025.00,0.0120
3012.00,0.0109
2999.00,0.0121
2986.00,0.0056
2973.00,0.0036
2960.00,0.0147
2947.00,0.0154
2934.00,0.0124
2921.00,0.0109
2908.00,0.0093
2895.00,0.0078
2882.00,0.0081
2869.00,0.0103
2856.00,0.0100
2843.00,0.0121
2830.00,0.0098
2817.00,0.0097
2804.00,0.0097
2791.00,0.0088
2778.00,0.0082
2765.00,0.0082
2752.00,0.0081
2739.00,0.0080
2726.00,0.0079
2713.00,0.0080
2700.00,0.0080
2687.00,0.0079
2674.00,0.0078
2661.00,0.0079
2648.00,0.0081
2635.00,0.0080
2622.00,0.0082
2609.00,0.0080
2596.00,0.0077
2583.00,0.0075
2570.00,0.0073
2557.00,0.0073
2544.00,0.0073
2531.00,0.0073
2518.00,0.0070
2505.00,0.0068
2492.00,0.0070
2479.00,0.0068
2466.00,0.0069
2453.00,0.0072
2440.00,0.0068
2427.00,0.0066
2414.00,0.0066
2401.00,0.0063
2388.00,0.0062
2375.00,0.0061
2362.00,0.0062
2349.00,0.0056
2336.00,0.0063
2323.00,0.0070
2310.00,0.0059
2297.00,0.0063
2284.00,0.0069
2271.00,0.0064
2258.00,0.0059
2245.00,0.0053
2232.00,0.0049
2219.00,0.0051
2206.00,0.0044
2193.00,0.0048
2180.00,0.0042
2167.00,0.0061
2154.00,0.0030
2141.00,0.0035
2128.00,0.0037
2115.00,0.0048
2102.00,0.0049
2089.00,0.0048
2076.00,0.0051
2063.00,0.0044
2050.00,0.0044
2037.00,0.0028
2024.00,0.0023
2011.00,0.0034
1998.00,0.0038
1985.00,0.0042
1972.00,0.0032
1959.00,0.0033
1946.00,0.0035
1933.00,0.0043
1920.00,0.0046
1907.00,0.0041
1894.00,0.0040
1881.00,0.0039
1868.00,0.0042
1855.00,0.0042
1842.00,0.0041
1829.00,0.0042
1816.00,0.0036
1803.00,0.0045
1790.00,0.0047
1777.00,0.0047
1764.00,0.0053
1751.00,0.0063
1738.00,0.0073
1725.00,0.0091
1712.00,0.0182
1699.00,0.0389
1686.00,0.1226
1673.00,0.1276
1660.00,0.0534
1647.00,0.0771
1634.00,0.0494
1621.00,0.0637
1608.00,0.0460
1595.00,0.0274
1582.00,0.0176
1569.00,0.0183
1556.00,0.0152
1543.00,0.0211
1530.00,0.1111
1517.00,0.0746
1504.00,0.0747
1491.00,0.1193
1478.00,0.0764
1465.00,0.0564
1452.00,0.0494
1439.00,0.0737
1426.00,0.0882
1413.00,0.0400
1400.00,0.0250
1387.00,0.0329
1374.00,0.0328
1361.00,0.0368
1348.00,0.1205
1335.00,0.0766
1322.00,0.0716
1309.00,0.1127
1296.00,0.0684
1283.00,0.0575
1270.00,0.0562
1257.00,0.0319
1244.00,0.0399
1231.00,0.1324
1218.00,0.1743
1205.00,0.0947
1192.00,0.1199
1179.00,0.0744
1166.00,0.0700
1153.00,0.0748
1140.00,0.0418
1127.00,0.0786
1114.00,0.1317
1101.00,0.1371
1088.00,0.0702
1075.00,0.0468
1062.00,0.0467
1049.00,0.0715
1036.00,0.0589
1023.00,0.1136
1010.00,0.0692
997.00,0.0450
984.00,0.0350
971.00,0.0313
958.00,0.0332
945.00,0.0271
932.00,0.0237
919.00,0.0228
906.00,0.0213
893.00,0.0199
880.00,0.0198
867.00,0.0181
854.00,0.0310
841.00,0.0225
828.00,0.0964
815.00,0.0291
802.00,0.0261
789.00,0.0744
776.00,0.0350
763.00,0.0893
750.00,0.0547
737.00,0.0517
724.00,0.0287
711.00,0.1160
698.00,0.0452
685.00,0.0850
672.00,0.0695
659.00,0.0561
646.00,0.0342
633.00,0.0286
620.00,0.0653
607.00,0.0501
594.00,0.0385
581.00,0.0427
568.00,0.0374
555.00,0.0294
542.00,0.0246
529.00,0.0226
516.00,0.0226
503.00,0.0211
490.00,0.0196
477.00,0.0255
464.00,0.0431
451.00,0.0257
438.00,0.0225
425.00,0.0238
412.00,0.0468
400.00,0.0336