File: FTIR/Olivia/2025_08_15_1CBG_3PVP29_silicone_powder_scan2.csv
Created as New Dataset,Sample 122 By YargerLab Date Friday, August 15 2025
cm-1,A
4000.00,0.0056
3987.00,0.0056
3974.00,0.0056
3961.00,0.0056
3948.00,0.0055
3935.00,0.0055
3922.00,0.0055
3909.00,0.0056
3896.00,0.0055
3883.00,0.0055
3870.00,0.0055
3857.00,0.0055
3844.00,0.0055
3831.00,0.0055
3818.00,0.0055
3805.00,0.0055
3792.00,0.0055
3779.00,0.0055
3766.00,0.0055
3753.00,0.0055
3740.00,0.0053
3727.00,0.0054
3714.00,0.0055
3701.00,0.0055
3688.00,0.0057
3675.00,0.0061
3662.00,0.0064
3649.00,0.0069
3636.00,0.0077
3623.00,0.0085
3610.00,0.0096
3597.00,0.0106
3584.00,0.0120
3571.00,0.0134
3558.00,0.0149
3545.00,0.0163
3532.00,0.0175
3519.00,0.0187
3506.00,0.0198
3493.00,0.0208
3480.00,0.0216
3467.00,0.0225
3454.00,0.0231
3441.00,0.0238
3428.00,0.0244
3415.00,0.0248
3402.00,0.0253
3389.00,0.0258
3376.00,0.0262
3363.00,0.0266
3350.00,0.0267
3337.00,0.0271
3324.00,0.0274
3311.00,0.0276
3298.00,0.0280
3285.00,0.0285
3272.00,0.0280
3259.00,0.0282
3246.00,0.0277
3233.00,0.0274
3220.00,0.0269
3207.00,0.0264
3194.00,0.0260
3181.00,0.0252
3168.00,0.0243
3155.00,0.0232
3142.00,0.0222
3129.00,0.0215
3116.00,0.0207
3103.00,0.0196
3090.00,0.0185
3077.00,0.0175
3064.00,0.0168
3051.00,0.0162
3038.00,0.0156
3025.00,0.0154
3012.00,0.0157
2999.00,0.0182
2986.00,0.0238
2973.00,0.0286
2960.00,0.0358
2947.00,0.0359
2934.00,0.0388
2921.00,0.0424
2908.00,0.0376
2895.00,0.0336
2882.00,0.0318
2869.00,0.0317
2856.00,0.0320
2843.00,0.0248
2830.00,0.0190
2817.00,0.0152
2804.00,0.0135
2791.00,0.0125
2778.00,0.0121
2765.00,0.0117
2752.00,0.0116
2739.00,0.0117
2726.00,0.0118
2713.00,0.0116
2700.00,0.0114
2687.00,0.0111
2674.00,0.0109
2661.00,0.0109
2648.00,0.0107
2635.00,0.0104
2622.00,0.0100
2609.00,0.0097
2596.00,0.0097
2583.00,0.0096
2570.00,0.0094
2557.00,0.0092
2544.00,0.0090
2531.00,0.0089
2518.00,0.0087
2505.00,0.0084
2492.00,0.0084
2479.00,0.0083
2466.00,0.0082
2453.00,0.0082
2440.00,0.0080
2427.00,0.0080
2414.00,0.0080
2401.00,0.0079
2388.00,0.0079
2375.00,0.0075
2362.00,0.0074
2349.00,0.0075
2336.00,0.0079
2323.00,0.0087
2310.00,0.0080
2297.00,0.0083
2284.00,0.0086
2271.00,0.0083
2258.00,0.0080
2245.00,0.0081
2232.00,0.0081
2219.00,0.0082
2206.00,0.0081
2193.00,0.0082
2180.00,0.0074
2167.00,0.0085
2154.00,0.0063
2141.00,0.0065
2128.00,0.0069
2115.00,0.0079
2102.00,0.0078
2089.00,0.0074
2076.00,0.0076
2063.00,0.0073
2050.00,0.0079
2037.00,0.0071
2024.00,0.0065
2011.00,0.0065
1998.00,0.0066
1985.00,0.0073
1972.00,0.0060
1959.00,0.0060
1946.00,0.0064
1933.00,0.0066
1920.00,0.0068
1907.00,0.0069
1894.00,0.0068
1881.00,0.0068
1868.00,0.0069
1855.00,0.0068
1842.00,0.0067
1829.00,0.0068
1816.00,0.0065
1803.00,0.0068
1790.00,0.0067
1777.00,0.0069
1764.00,0.0071
1751.00,0.0074
1738.00,0.0079
1725.00,0.0097
1712.00,0.0140
1699.00,0.0328
1686.00,0.0840
1673.00,0.1315
1660.00,0.1768
1647.00,0.1825
1634.00,0.1137
1621.00,0.0767
1608.00,0.0555
1595.00,0.0562
1582.00,0.0389
1569.00,0.0274
1556.00,0.0228
1543.00,0.0219
1530.00,0.0209
1517.00,0.0211
1504.00,0.0263
1491.00,0.0420
1478.00,0.0259
1465.00,0.0646
1452.00,0.0626
1439.00,0.1001
1426.00,0.1297
1413.00,0.0795
1400.00,0.0488
1387.00,0.0501
1374.00,0.0610
1361.00,0.0460
1348.00,0.0394
1335.00,0.0377
1322.00,0.0521
1309.00,0.0497
1296.00,0.0831
1283.00,0.1278
1270.00,0.1166
1257.00,0.0750
1244.00,0.0535
1231.00,0.0659
1218.00,0.0667
1205.00,0.0533
1192.00,0.0463
1179.00,0.0463
1166.00,0.0598
1153.00,0.0488
1140.00,0.0384
1127.00,0.0367
1114.00,0.0404
1101.00,0.0445
1088.00,0.0470
1075.00,0.0469
1062.00,0.0434
1049.00,0.0732
1036.00,0.0561
1023.00,0.0518
1010.00,0.0416
997.00,0.0376
984.00,0.0338
971.00,0.0286
958.00,0.0246
945.00,0.0231
932.00,0.0285
919.00,0.0273
906.00,0.0300
893.00,0.0310
880.00,0.0299
867.00,0.0333
854.00,0.0446
841.00,0.0549
828.00,0.0565
815.00,0.0477
802.00,0.0458
789.00,0.0445
776.00,0.0438
763.00,0.0456
750.00,0.0552
737.00,0.0644
724.00,0.0570
711.00,0.0531
698.00,0.0551
685.00,0.0606
672.00,0.0678
659.00,0.0806
646.00,0.0913
633.00,0.0789
620.00,0.0725
607.00,0.0735
594.00,0.0786
581.00,0.0917
568.00,0.0954
555.00,0.0844
542.00,0.0788
529.00,0.0774
516.00,0.0757
503.00,0.0741
490.00,0.0758
477.00,0.0777
464.00,0.0780
451.00,0.0767
438.00,0.0723
425.00,0.0691
412.00,0.0698
400.00,0.0699