File: FTIR/Olivia/2025_07_29_Polystyrene_Std_scan1.csv
Created as New Dataset,Sample 951 By YargerLab Date Tuesday, July 29 2025
cm-1,A
4000.00,0.0009
3987.00,0.0009
3974.00,0.0008
3961.00,0.0008
3948.00,0.0008
3935.00,0.0008
3922.00,0.0008
3909.00,0.0008
3896.00,0.0008
3883.00,0.0009
3870.00,0.0008
3857.00,0.0008
3844.00,0.0008
3831.00,0.0008
3818.00,0.0009
3805.00,0.0009
3792.00,0.0009
3779.00,0.0009
3766.00,0.0009
3753.00,0.0009
3740.00,0.0008
3727.00,0.0008
3714.00,0.0008
3701.00,0.0009
3688.00,0.0008
3675.00,0.0009
3662.00,0.0009
3649.00,0.0009
3636.00,0.0010
3623.00,0.0009
3610.00,0.0010
3597.00,0.0010
3584.00,0.0011
3571.00,0.0012
3558.00,0.0012
3545.00,0.0014
3532.00,0.0015
3519.00,0.0016
3506.00,0.0017
3493.00,0.0018
3480.00,0.0018
3467.00,0.0019
3454.00,0.0019
3441.00,0.0019
3428.00,0.0019
3415.00,0.0019
3402.00,0.0019
3389.00,0.0019
3376.00,0.0019
3363.00,0.0019
3350.00,0.0018
3337.00,0.0018
3324.00,0.0017
3311.00,0.0018
3298.00,0.0016
3285.00,0.0017
3272.00,0.0017
3259.00,0.0017
3246.00,0.0016
3233.00,0.0015
3220.00,0.0015
3207.00,0.0016
3194.00,0.0015
3181.00,0.0015
3168.00,0.0015
3155.00,0.0014
3142.00,0.0014
3129.00,0.0014
3116.00,0.0017
3103.00,0.0034
3090.00,0.0046
3077.00,0.0067
3064.00,0.0097
3051.00,0.0071
3038.00,0.0077
3025.00,0.0215
3012.00,0.0061
2999.00,0.0059
2986.00,0.0034
2973.00,0.0038
2960.00,0.0055
2947.00,0.0095
2934.00,0.0191
2921.00,0.0265
2908.00,0.0201
2895.00,0.0120
2882.00,0.0084
2869.00,0.0068
2856.00,0.0101
2843.00,0.0094
2830.00,0.0033
2817.00,0.0024
2804.00,0.0022
2791.00,0.0019
2778.00,0.0018
2765.00,0.0016
2752.00,0.0015
2739.00,0.0015
2726.00,0.0016
2713.00,0.0016
2700.00,0.0015
2687.00,0.0015
2674.00,0.0015
2661.00,0.0018
2648.00,0.0020
2635.00,0.0020
2622.00,0.0018
2609.00,0.0018
2596.00,0.0016
2583.00,0.0015
2570.00,0.0014
2557.00,0.0013
2544.00,0.0012
2531.00,0.0012
2518.00,0.0011
2505.00,0.0011
2492.00,0.0011
2479.00,0.0010
2466.00,0.0010
2453.00,0.0010
2440.00,0.0009
2427.00,0.0008
2414.00,0.0007
2401.00,0.0006
2388.00,0.0007
2375.00,0.0005
2362.00,0.0008
2349.00,0.0010
2336.00,0.0013
2323.00,0.0020
2310.00,0.0015
2297.00,0.0014
2284.00,0.0017
2271.00,0.0013
2258.00,0.0012
2245.00,0.0011
2232.00,0.0010
2219.00,0.0008
2206.00,0.0009
2193.00,0.0011
2180.00,0.0004
2167.00,0.0013
2154.00,-0.0017
2141.00,-0.0008
2128.00,-0.0005
2115.00,0.0006
2102.00,0.0005
2089.00,0.0004
2076.00,0.0007
2063.00,0.0004
2050.00,0.0011
2037.00,0.0010
2024.00,-0.0003
2011.00,-0.0000
1998.00,-0.0000
1985.00,0.0010
1972.00,0.0002
1959.00,0.0008
1946.00,0.0025
1933.00,0.0014
1920.00,0.0006
1907.00,0.0004
1894.00,0.0011
1881.00,0.0022
1868.00,0.0026
1855.00,0.0011
1842.00,0.0006
1829.00,0.0011
1816.00,0.0017
1803.00,0.0030
1790.00,0.0018
1777.00,0.0015
1764.00,0.0017
1751.00,0.0031
1738.00,0.0037
1725.00,0.0031
1712.00,0.0026
1699.00,0.0033
1686.00,0.0055
1673.00,0.0063
1660.00,0.0059
1647.00,0.0043
1634.00,0.0030
1621.00,0.0031
1608.00,0.0081
1595.00,0.0102
1582.00,0.0081
1569.00,0.0024
1556.00,0.0022
1543.00,0.0033
1530.00,0.0022
1517.00,0.0021
1504.00,0.0042
1491.00,0.0433
1478.00,0.0057
1465.00,0.0065
1452.00,0.0484
1439.00,0.0186
1426.00,0.0064
1413.00,0.0043
1400.00,0.0041
1387.00,0.0066
1374.00,0.0106
1361.00,0.0098
1348.00,0.0086
1335.00,0.0078
1322.00,0.0085
1309.00,0.0086
1296.00,0.0079
1283.00,0.0070
1270.00,0.0054
1257.00,0.0047
1244.00,0.0049
1231.00,0.0047
1218.00,0.0048
1205.00,0.0060
1192.00,0.0073
1179.00,0.0093
1166.00,0.0058
1153.00,0.0096
1140.00,0.0041
1127.00,0.0038
1114.00,0.0051
1101.00,0.0054
1088.00,0.0066
1075.00,0.0107
1062.00,0.0108
1049.00,0.0071
1036.00,0.0099
1023.00,0.0168
1010.00,0.0088
997.00,0.0070
984.00,0.0080
971.00,0.0078
958.00,0.0074
945.00,0.0072
932.00,0.0053
919.00,0.0061
906.00,0.0155
893.00,0.0055
880.00,0.0039
867.00,0.0035
854.00,0.0040
841.00,0.0079
828.00,0.0036
815.00,0.0036
802.00,0.0041
789.00,0.0077
776.00,0.0196
763.00,0.0509
750.00,0.0659
737.00,0.0285
724.00,0.0078
711.00,0.0174
698.00,0.1495
685.00,0.0593
672.00,0.0270
659.00,0.0164
646.00,0.0108
633.00,0.0116
620.00,0.0139
607.00,0.0109
594.00,0.0120
581.00,0.0157
568.00,0.0261
555.00,0.0371
542.00,0.0574
529.00,0.0408
516.00,0.0200
503.00,0.0128
490.00,0.0105
477.00,0.0089
464.00,0.0084
451.00,0.0072
438.00,0.0074
425.00,0.0069
412.00,0.0070
400.00,0.0066