File: FTIR/Olivia/2025_08_01_1CBN_3PVP10kDa_MC_glass_scan1.csv
Created as New Dataset,Sample 1017 By YargerLab Date Friday, August 01 2025
cm-1,A
4000.00,0.0044
3987.00,0.0045
3974.00,0.0044
3961.00,0.0044
3948.00,0.0044
3935.00,0.0044
3922.00,0.0045
3909.00,0.0044
3896.00,0.0046
3883.00,0.0046
3870.00,0.0046
3857.00,0.0046
3844.00,0.0046
3831.00,0.0045
3818.00,0.0047
3805.00,0.0046
3792.00,0.0044
3779.00,0.0045
3766.00,0.0046
3753.00,0.0047
3740.00,0.0047
3727.00,0.0045
3714.00,0.0045
3701.00,0.0043
3688.00,0.0046
3675.00,0.0050
3662.00,0.0047
3649.00,0.0055
3636.00,0.0055
3623.00,0.0060
3610.00,0.0067
3597.00,0.0072
3584.00,0.0082
3571.00,0.0091
3558.00,0.0100
3545.00,0.0109
3532.00,0.0115
3519.00,0.0121
3506.00,0.0126
3493.00,0.0131
3480.00,0.0137
3467.00,0.0141
3454.00,0.0144
3441.00,0.0145
3428.00,0.0146
3415.00,0.0146
3402.00,0.0145
3389.00,0.0144
3376.00,0.0143
3363.00,0.0141
3350.00,0.0139
3337.00,0.0138
3324.00,0.0137
3311.00,0.0135
3298.00,0.0135
3285.00,0.0135
3272.00,0.0131
3259.00,0.0131
3246.00,0.0129
3233.00,0.0127
3220.00,0.0125
3207.00,0.0123
3194.00,0.0121
3181.00,0.0119
3168.00,0.0118
3155.00,0.0115
3142.00,0.0113
3129.00,0.0111
3116.00,0.0109
3103.00,0.0107
3090.00,0.0106
3077.00,0.0106
3064.00,0.0104
3051.00,0.0101
3038.00,0.0100
3025.00,0.0099
3012.00,0.0101
2999.00,0.0122
2986.00,0.0171
2973.00,0.0208
2960.00,0.0240
2947.00,0.0248
2934.00,0.0258
2921.00,0.0267
2908.00,0.0223
2895.00,0.0205
2882.00,0.0203
2869.00,0.0210
2856.00,0.0203
2843.00,0.0154
2830.00,0.0123
2817.00,0.0105
2804.00,0.0095
2791.00,0.0089
2778.00,0.0084
2765.00,0.0082
2752.00,0.0081
2739.00,0.0082
2726.00,0.0081
2713.00,0.0079
2700.00,0.0077
2687.00,0.0075
2674.00,0.0074
2661.00,0.0076
2648.00,0.0076
2635.00,0.0074
2622.00,0.0073
2609.00,0.0072
2596.00,0.0070
2583.00,0.0070
2570.00,0.0068
2557.00,0.0066
2544.00,0.0065
2531.00,0.0062
2518.00,0.0060
2505.00,0.0058
2492.00,0.0057
2479.00,0.0057
2466.00,0.0057
2453.00,0.0057
2440.00,0.0057
2427.00,0.0055
2414.00,0.0055
2401.00,0.0053
2388.00,0.0052
2375.00,0.0046
2362.00,0.0045
2349.00,0.0045
2336.00,0.0050
2323.00,0.0061
2310.00,0.0053
2297.00,0.0057
2284.00,0.0063
2271.00,0.0059
2258.00,0.0058
2245.00,0.0055
2232.00,0.0055
2219.00,0.0056
2206.00,0.0055
2193.00,0.0059
2180.00,0.0053
2167.00,0.0064
2154.00,0.0035
2141.00,0.0038
2128.00,0.0042
2115.00,0.0053
2102.00,0.0051
2089.00,0.0050
2076.00,0.0053
2063.00,0.0049
2050.00,0.0057
2037.00,0.0054
2024.00,0.0045
2011.00,0.0046
1998.00,0.0043
1985.00,0.0050
1972.00,0.0036
1959.00,0.0034
1946.00,0.0039
1933.00,0.0040
1920.00,0.0041
1907.00,0.0042
1894.00,0.0043
1881.00,0.0042
1868.00,0.0041
1855.00,0.0043
1842.00,0.0042
1829.00,0.0041
1816.00,0.0039
1803.00,0.0043
1790.00,0.0042
1777.00,0.0043
1764.00,0.0045
1751.00,0.0047
1738.00,0.0051
1725.00,0.0062
1712.00,0.0089
1699.00,0.0247
1686.00,0.0675
1673.00,0.1000
1660.00,0.1140
1647.00,0.1032
1634.00,0.0609
1621.00,0.0489
1608.00,0.0392
1595.00,0.0234
1582.00,0.0299
1569.00,0.0187
1556.00,0.0140
1543.00,0.0126
1530.00,0.0124
1517.00,0.0141
1504.00,0.0183
1491.00,0.0294
1478.00,0.0174
1465.00,0.0419
1452.00,0.0388
1439.00,0.0574
1426.00,0.0731
1413.00,0.0513
1400.00,0.0397
1387.00,0.0270
1374.00,0.0334
1361.00,0.0312
1348.00,0.0215
1335.00,0.0223
1322.00,0.0307
1309.00,0.0302
1296.00,0.0511
1283.00,0.0858
1270.00,0.0761
1257.00,0.0437
1244.00,0.0368
1231.00,0.0428
1218.00,0.0425
1205.00,0.0314
1192.00,0.0347
1179.00,0.0261
1166.00,0.0288
1153.00,0.0314
1140.00,0.0208
1127.00,0.0285
1114.00,0.0199
1101.00,0.0237
1088.00,0.0194
1075.00,0.0217
1062.00,0.0384
1049.00,0.0291
1036.00,0.0276
1023.00,0.0253
1010.00,0.0214
997.00,0.0220
984.00,0.0170
971.00,0.0159
958.00,0.0147
945.00,0.0144
932.00,0.0202
919.00,0.0179
906.00,0.0175
893.00,0.0203
880.00,0.0195
867.00,0.0247
854.00,0.0282
841.00,0.0321
828.00,0.0308
815.00,0.0296
802.00,0.0199
789.00,0.0196
776.00,0.0211
763.00,0.0225
750.00,0.0278
737.00,0.0362
724.00,0.0288
711.00,0.0259
698.00,0.0265
685.00,0.0309
672.00,0.0340
659.00,0.0437
646.00,0.0507
633.00,0.0426
620.00,0.0398
607.00,0.0401
594.00,0.0424
581.00,0.0540
568.00,0.0549
555.00,0.0489
542.00,0.0443
529.00,0.0462
516.00,0.0429
503.00,0.0434
490.00,0.0435
477.00,0.0440
464.00,0.0434
451.00,0.0418
438.00,0.0391
425.00,0.0389
412.00,0.0413
400.00,0.0398