File: FTIR/Olivia/2025_07_23_Polystyrene_Std_scan2.csv
Created as New Dataset,Sample 879 By YargerLab Date Wednesday, July 23 2025
cm-1,A
4000.00,0.0010
3987.00,0.0010
3974.00,0.0009
3961.00,0.0008
3948.00,0.0009
3935.00,0.0009
3922.00,0.0009
3909.00,0.0009
3896.00,0.0009
3883.00,0.0009
3870.00,0.0010
3857.00,0.0010
3844.00,0.0009
3831.00,0.0009
3818.00,0.0010
3805.00,0.0011
3792.00,0.0009
3779.00,0.0009
3766.00,0.0010
3753.00,0.0010
3740.00,0.0010
3727.00,0.0009
3714.00,0.0010
3701.00,0.0009
3688.00,0.0010
3675.00,0.0010
3662.00,0.0010
3649.00,0.0012
3636.00,0.0010
3623.00,0.0011
3610.00,0.0011
3597.00,0.0011
3584.00,0.0012
3571.00,0.0012
3558.00,0.0013
3545.00,0.0014
3532.00,0.0015
3519.00,0.0015
3506.00,0.0016
3493.00,0.0017
3480.00,0.0017
3467.00,0.0018
3454.00,0.0019
3441.00,0.0019
3428.00,0.0018
3415.00,0.0019
3402.00,0.0019
3389.00,0.0019
3376.00,0.0019
3363.00,0.0018
3350.00,0.0018
3337.00,0.0017
3324.00,0.0017
3311.00,0.0018
3298.00,0.0017
3285.00,0.0017
3272.00,0.0017
3259.00,0.0016
3246.00,0.0016
3233.00,0.0015
3220.00,0.0016
3207.00,0.0017
3194.00,0.0016
3181.00,0.0015
3168.00,0.0016
3155.00,0.0015
3142.00,0.0013
3129.00,0.0013
3116.00,0.0018
3103.00,0.0035
3090.00,0.0052
3077.00,0.0068
3064.00,0.0104
3051.00,0.0073
3038.00,0.0086
3025.00,0.0220
3012.00,0.0064
2999.00,0.0060
2986.00,0.0037
2973.00,0.0041
2960.00,0.0061
2947.00,0.0106
2934.00,0.0209
2921.00,0.0278
2908.00,0.0212
2895.00,0.0129
2882.00,0.0092
2869.00,0.0076
2856.00,0.0112
2843.00,0.0099
2830.00,0.0037
2817.00,0.0028
2804.00,0.0025
2791.00,0.0022
2778.00,0.0021
2765.00,0.0019
2752.00,0.0018
2739.00,0.0017
2726.00,0.0018
2713.00,0.0018
2700.00,0.0018
2687.00,0.0017
2674.00,0.0017
2661.00,0.0020
2648.00,0.0022
2635.00,0.0023
2622.00,0.0021
2609.00,0.0020
2596.00,0.0017
2583.00,0.0016
2570.00,0.0016
2557.00,0.0015
2544.00,0.0013
2531.00,0.0013
2518.00,0.0013
2505.00,0.0012
2492.00,0.0012
2479.00,0.0011
2466.00,0.0010
2453.00,0.0011
2440.00,0.0011
2427.00,0.0008
2414.00,0.0007
2401.00,0.0006
2388.00,0.0005
2375.00,0.0007
2362.00,0.0009
2349.00,0.0012
2336.00,0.0015
2323.00,0.0026
2310.00,0.0019
2297.00,0.0017
2284.00,0.0020
2271.00,0.0014
2258.00,0.0012
2245.00,0.0013
2232.00,0.0010
2219.00,0.0009
2206.00,0.0008
2193.00,0.0009
2180.00,0.0007
2167.00,0.0020
2154.00,-0.0017
2141.00,-0.0013
2128.00,-0.0007
2115.00,0.0006
2102.00,0.0004
2089.00,0.0005
2076.00,0.0006
2063.00,0.0003
2050.00,0.0010
2037.00,0.0004
2024.00,-0.0004
2011.00,-0.0001
1998.00,0.0001
1985.00,0.0013
1972.00,-0.0001
1959.00,0.0006
1946.00,0.0028
1933.00,0.0013
1920.00,0.0005
1907.00,0.0004
1894.00,0.0012
1881.00,0.0022
1868.00,0.0025
1855.00,0.0012
1842.00,0.0006
1829.00,0.0011
1816.00,0.0018
1803.00,0.0033
1790.00,0.0021
1777.00,0.0019
1764.00,0.0023
1751.00,0.0037
1738.00,0.0046
1725.00,0.0039
1712.00,0.0033
1699.00,0.0032
1686.00,0.0038
1673.00,0.0046
1660.00,0.0043
1647.00,0.0036
1634.00,0.0031
1621.00,0.0032
1608.00,0.0094
1595.00,0.0109
1582.00,0.0089
1569.00,0.0028
1556.00,0.0027
1543.00,0.0036
1530.00,0.0024
1517.00,0.0021
1504.00,0.0047
1491.00,0.0441
1478.00,0.0063
1465.00,0.0069
1452.00,0.0520
1439.00,0.0199
1426.00,0.0069
1413.00,0.0052
1400.00,0.0049
1387.00,0.0079
1374.00,0.0121
1361.00,0.0114
1348.00,0.0102
1335.00,0.0092
1322.00,0.0097
1309.00,0.0097
1296.00,0.0083
1283.00,0.0076
1270.00,0.0061
1257.00,0.0056
1244.00,0.0058
1231.00,0.0056
1218.00,0.0058
1205.00,0.0071
1192.00,0.0085
1179.00,0.0106
1166.00,0.0068
1153.00,0.0108
1140.00,0.0051
1127.00,0.0048
1114.00,0.0063
1101.00,0.0064
1088.00,0.0078
1075.00,0.0121
1062.00,0.0118
1049.00,0.0081
1036.00,0.0115
1023.00,0.0182
1010.00,0.0102
997.00,0.0081
984.00,0.0092
971.00,0.0091
958.00,0.0087
945.00,0.0085
932.00,0.0063
919.00,0.0074
906.00,0.0169
893.00,0.0067
880.00,0.0049
867.00,0.0044
854.00,0.0049
841.00,0.0091
828.00,0.0043
815.00,0.0042
802.00,0.0048
789.00,0.0088
776.00,0.0221
763.00,0.0559
750.00,0.0709
737.00,0.0316
724.00,0.0089
711.00,0.0204
698.00,0.1662
685.00,0.0652
672.00,0.0315
659.00,0.0198
646.00,0.0135
633.00,0.0146
620.00,0.0170
607.00,0.0137
594.00,0.0149
581.00,0.0187
568.00,0.0298
555.00,0.0419
542.00,0.0634
529.00,0.0453
516.00,0.0239
503.00,0.0167
490.00,0.0128
477.00,0.0116
464.00,0.0101
451.00,0.0100
438.00,0.0094
425.00,0.0101
412.00,0.0098
400.00,0.0099