File: FTIR/Olivia/2025_06_26_Polystyrene_Std_OAG_scan3.csv
Created as New Dataset,Sample 723 By YargerLab Date Thursday, June 26 2025
cm-1,A
4000.00,0.0020
3987.00,0.0019
3974.00,0.0019
3961.00,0.0019
3948.00,0.0019
3935.00,0.0019
3922.00,0.0018
3909.00,0.0019
3896.00,0.0018
3883.00,0.0018
3870.00,0.0018
3857.00,0.0018
3844.00,0.0019
3831.00,0.0018
3818.00,0.0018
3805.00,0.0019
3792.00,0.0019
3779.00,0.0019
3766.00,0.0019
3753.00,0.0019
3740.00,0.0018
3727.00,0.0017
3714.00,0.0018
3701.00,0.0018
3688.00,0.0016
3675.00,0.0012
3662.00,0.0012
3649.00,0.0013
3636.00,0.0013
3623.00,0.0016
3610.00,0.0017
3597.00,0.0017
3584.00,0.0017
3571.00,0.0017
3558.00,0.0017
3545.00,0.0018
3532.00,0.0018
3519.00,0.0018
3506.00,0.0019
3493.00,0.0019
3480.00,0.0020
3467.00,0.0020
3454.00,0.0020
3441.00,0.0020
3428.00,0.0020
3415.00,0.0020
3402.00,0.0020
3389.00,0.0020
3376.00,0.0021
3363.00,0.0020
3350.00,0.0020
3337.00,0.0020
3324.00,0.0020
3311.00,0.0020
3298.00,0.0020
3285.00,0.0020
3272.00,0.0020
3259.00,0.0019
3246.00,0.0019
3233.00,0.0019
3220.00,0.0018
3207.00,0.0020
3194.00,0.0019
3181.00,0.0018
3168.00,0.0019
3155.00,0.0019
3142.00,0.0019
3129.00,0.0019
3116.00,0.0025
3103.00,0.0050
3090.00,0.0067
3077.00,0.0097
3064.00,0.0142
3051.00,0.0103
3038.00,0.0114
3025.00,0.0319
3012.00,0.0084
2999.00,0.0060
2986.00,0.0007
2973.00,0.0003
2960.00,0.0041
2947.00,0.0112
2934.00,0.0258
2921.00,0.0369
2908.00,0.0277
2895.00,0.0156
2882.00,0.0104
2869.00,0.0086
2856.00,0.0139
2843.00,0.0136
2830.00,0.0049
2817.00,0.0037
2804.00,0.0034
2791.00,0.0031
2778.00,0.0030
2765.00,0.0027
2752.00,0.0026
2739.00,0.0026
2726.00,0.0027
2713.00,0.0027
2700.00,0.0026
2687.00,0.0026
2674.00,0.0026
2661.00,0.0029
2648.00,0.0031
2635.00,0.0032
2622.00,0.0029
2609.00,0.0029
2596.00,0.0027
2583.00,0.0026
2570.00,0.0024
2557.00,0.0023
2544.00,0.0023
2531.00,0.0022
2518.00,0.0021
2505.00,0.0022
2492.00,0.0021
2479.00,0.0020
2466.00,0.0019
2453.00,0.0020
2440.00,0.0019
2427.00,0.0017
2414.00,0.0017
2401.00,0.0015
2388.00,0.0016
2375.00,0.0017
2362.00,0.0018
2349.00,0.0021
2336.00,0.0026
2323.00,0.0035
2310.00,0.0029
2297.00,0.0027
2284.00,0.0028
2271.00,0.0023
2258.00,0.0022
2245.00,0.0020
2232.00,0.0017
2219.00,0.0019
2206.00,0.0016
2193.00,0.0019
2180.00,0.0012
2167.00,0.0028
2154.00,-0.0011
2141.00,-0.0003
2128.00,-0.0002
2115.00,0.0013
2102.00,0.0012
2089.00,0.0011
2076.00,0.0013
2063.00,0.0009
2050.00,0.0021
2037.00,0.0013
2024.00,0.0001
2011.00,0.0005
1998.00,0.0008
1985.00,0.0023
1972.00,0.0008
1959.00,0.0022
1946.00,0.0045
1933.00,0.0028
1920.00,0.0016
1907.00,0.0013
1894.00,0.0022
1881.00,0.0039
1868.00,0.0045
1855.00,0.0024
1842.00,0.0017
1829.00,0.0021
1816.00,0.0034
1803.00,0.0053
1790.00,0.0033
1777.00,0.0028
1764.00,0.0030
1751.00,0.0051
1738.00,0.0056
1725.00,0.0044
1712.00,0.0035
1699.00,0.0033
1686.00,0.0037
1673.00,0.0041
1660.00,0.0038
1647.00,0.0031
1634.00,0.0030
1621.00,0.0037
1608.00,0.0124
1595.00,0.0162
1582.00,0.0128
1569.00,0.0038
1556.00,0.0037
1543.00,0.0053
1530.00,0.0039
1517.00,0.0037
1504.00,0.0070
1491.00,0.0722
1478.00,0.0087
1465.00,0.0085
1452.00,0.0818
1439.00,0.0287
1426.00,0.0084
1413.00,0.0059
1400.00,0.0049
1387.00,0.0089
1374.00,0.0157
1361.00,0.0152
1348.00,0.0138
1335.00,0.0124
1322.00,0.0133
1309.00,0.0137
1296.00,0.0110
1283.00,0.0099
1270.00,0.0074
1257.00,0.0063
1244.00,0.0067
1231.00,0.0067
1218.00,0.0073
1205.00,0.0095
1192.00,0.0117
1179.00,0.0146
1166.00,0.0078
1153.00,0.0144
1140.00,0.0052
1127.00,0.0052
1114.00,0.0082
1101.00,0.0085
1088.00,0.0103
1075.00,0.0176
1062.00,0.0176
1049.00,0.0119
1036.00,0.0176
1023.00,0.0303
1010.00,0.0159
997.00,0.0126
984.00,0.0143
971.00,0.0131
958.00,0.0121
945.00,0.0121
932.00,0.0090
919.00,0.0114
906.00,0.0278
893.00,0.0102
880.00,0.0071
867.00,0.0063
854.00,0.0070
841.00,0.0141
828.00,0.0061
815.00,0.0060
802.00,0.0071
789.00,0.0139
776.00,0.0356
763.00,0.0950
750.00,0.1229
737.00,0.0509
724.00,0.0139
711.00,0.0321
698.00,0.3528
685.00,0.1119
672.00,0.0497
659.00,0.0294
646.00,0.0187
633.00,0.0210
620.00,0.0254
607.00,0.0192
594.00,0.0216
581.00,0.0278
568.00,0.0470
555.00,0.0685
542.00,0.1090
529.00,0.0760
516.00,0.0374
503.00,0.0241
490.00,0.0185
477.00,0.0157
464.00,0.0138
451.00,0.0140
438.00,0.0121
425.00,0.0099
412.00,0.0119
400.00,0.0086