File: FTIR/Olivia/2025_08_06_1CBN_3PVP10_MP_Powder_Scan1.csv
Created as New Dataset,Sample 1088 By YargerLab Date Wednesday, August 06 2025
cm-1,A
4000.00,0.0109
3987.00,0.0109
3974.00,0.0109
3961.00,0.0110
3948.00,0.0109
3935.00,0.0109
3922.00,0.0109
3909.00,0.0109
3896.00,0.0109
3883.00,0.0108
3870.00,0.0107
3857.00,0.0107
3844.00,0.0108
3831.00,0.0108
3818.00,0.0107
3805.00,0.0107
3792.00,0.0107
3779.00,0.0107
3766.00,0.0107
3753.00,0.0106
3740.00,0.0105
3727.00,0.0104
3714.00,0.0105
3701.00,0.0105
3688.00,0.0106
3675.00,0.0108
3662.00,0.0111
3649.00,0.0113
3636.00,0.0120
3623.00,0.0128
3610.00,0.0137
3597.00,0.0149
3584.00,0.0164
3571.00,0.0180
3558.00,0.0197
3545.00,0.0214
3532.00,0.0228
3519.00,0.0241
3506.00,0.0250
3493.00,0.0260
3480.00,0.0274
3467.00,0.0288
3454.00,0.0303
3441.00,0.0319
3428.00,0.0338
3415.00,0.0362
3402.00,0.0376
3389.00,0.0369
3376.00,0.0349
3363.00,0.0329
3350.00,0.0314
3337.00,0.0305
3324.00,0.0300
3311.00,0.0300
3298.00,0.0303
3285.00,0.0310
3272.00,0.0312
3259.00,0.0318
3246.00,0.0319
3233.00,0.0317
3220.00,0.0313
3207.00,0.0299
3194.00,0.0282
3181.00,0.0263
3168.00,0.0246
3155.00,0.0226
3142.00,0.0211
3129.00,0.0198
3116.00,0.0188
3103.00,0.0178
3090.00,0.0174
3077.00,0.0171
3064.00,0.0167
3051.00,0.0166
3038.00,0.0168
3025.00,0.0166
3012.00,0.0166
2999.00,0.0206
2986.00,0.0278
2973.00,0.0371
2960.00,0.0455
2947.00,0.0400
2934.00,0.0510
2921.00,0.0569
2908.00,0.0424
2895.00,0.0359
2882.00,0.0337
2869.00,0.0368
2856.00,0.0447
2843.00,0.0306
2830.00,0.0226
2817.00,0.0193
2804.00,0.0177
2791.00,0.0168
2778.00,0.0161
2765.00,0.0158
2752.00,0.0157
2739.00,0.0158
2726.00,0.0160
2713.00,0.0156
2700.00,0.0154
2687.00,0.0150
2674.00,0.0150
2661.00,0.0155
2648.00,0.0155
2635.00,0.0153
2622.00,0.0148
2609.00,0.0147
2596.00,0.0147
2583.00,0.0147
2570.00,0.0146
2557.00,0.0143
2544.00,0.0141
2531.00,0.0141
2518.00,0.0138
2505.00,0.0135
2492.00,0.0134
2479.00,0.0133
2466.00,0.0132
2453.00,0.0133
2440.00,0.0131
2427.00,0.0130
2414.00,0.0130
2401.00,0.0130
2388.00,0.0127
2375.00,0.0124
2362.00,0.0123
2349.00,0.0125
2336.00,0.0130
2323.00,0.0143
2310.00,0.0134
2297.00,0.0136
2284.00,0.0140
2271.00,0.0132
2258.00,0.0129
2245.00,0.0130
2232.00,0.0129
2219.00,0.0123
2206.00,0.0129
2193.00,0.0128
2180.00,0.0122
2167.00,0.0137
2154.00,0.0101
2141.00,0.0109
2128.00,0.0112
2115.00,0.0124
2102.00,0.0123
2089.00,0.0120
2076.00,0.0125
2063.00,0.0118
2050.00,0.0124
2037.00,0.0117
2024.00,0.0108
2011.00,0.0113
1998.00,0.0109
1985.00,0.0117
1972.00,0.0101
1959.00,0.0098
1946.00,0.0101
1933.00,0.0103
1920.00,0.0106
1907.00,0.0120
1894.00,0.0114
1881.00,0.0110
1868.00,0.0109
1855.00,0.0110
1842.00,0.0111
1829.00,0.0107
1816.00,0.0106
1803.00,0.0110
1790.00,0.0109
1777.00,0.0112
1764.00,0.0112
1751.00,0.0112
1738.00,0.0113
1725.00,0.0138
1712.00,0.0175
1699.00,0.0305
1686.00,0.0680
1673.00,0.1116
1660.00,0.1407
1647.00,0.1391
1634.00,0.1004
1621.00,0.1053
1608.00,0.0735
1595.00,0.0445
1582.00,0.0610
1569.00,0.0411
1556.00,0.0270
1543.00,0.0239
1530.00,0.0222
1517.00,0.0244
1504.00,0.0328
1491.00,0.0494
1478.00,0.0297
1465.00,0.0701
1452.00,0.0613
1439.00,0.0911
1426.00,0.1161
1413.00,0.0810
1400.00,0.0752
1387.00,0.0570
1374.00,0.0575
1361.00,0.0645
1348.00,0.0497
1335.00,0.0417
1322.00,0.0522
1309.00,0.0510
1296.00,0.0852
1283.00,0.1279
1270.00,0.1074
1257.00,0.0688
1244.00,0.0662
1231.00,0.0820
1218.00,0.0705
1205.00,0.0578
1192.00,0.0730
1179.00,0.0476
1166.00,0.0489
1153.00,0.0695
1140.00,0.0398
1127.00,0.0741
1114.00,0.0457
1101.00,0.0552
1088.00,0.0373
1075.00,0.0374
1062.00,0.0488
1049.00,0.0904
1036.00,0.0547
1023.00,0.0745
1010.00,0.0442
997.00,0.0493
984.00,0.0354
971.00,0.0328
958.00,0.0312
945.00,0.0293
932.00,0.0379
919.00,0.0357
906.00,0.0301
893.00,0.0362
880.00,0.0317
867.00,0.0578
854.00,0.0513
841.00,0.0530
828.00,0.0501
815.00,0.0727
802.00,0.0324
789.00,0.0306
776.00,0.0357
763.00,0.0367
750.00,0.0421
737.00,0.0598
724.00,0.0535
711.00,0.0512
698.00,0.0544
685.00,0.0592
672.00,0.0703
659.00,0.0791
646.00,0.0811
633.00,0.0736
620.00,0.0765
607.00,0.0765
594.00,0.0884
581.00,0.0948
568.00,0.0950
555.00,0.0935
542.00,0.0942
529.00,0.0945
516.00,0.0814
503.00,0.0823
490.00,0.0839
477.00,0.0800
464.00,0.0786
451.00,0.0755
438.00,0.0723
425.00,0.0669
412.00,0.0677
400.00,0.0652