File: FTIR/Olivia/2025_06_12_Polystyrene_Std_scan2.csv
Created as New Dataset,Sample 672 By YargerLab Date Thursday, June 12 2025
cm-1,A
4000.00,0.0027
3987.00,0.0025
3974.00,0.0026
3961.00,0.0026
3948.00,0.0025
3935.00,0.0025
3922.00,0.0026
3909.00,0.0025
3896.00,0.0026
3883.00,0.0027
3870.00,0.0027
3857.00,0.0027
3844.00,0.0026
3831.00,0.0027
3818.00,0.0029
3805.00,0.0028
3792.00,0.0025
3779.00,0.0026
3766.00,0.0026
3753.00,0.0028
3740.00,0.0028
3727.00,0.0027
3714.00,0.0026
3701.00,0.0025
3688.00,0.0025
3675.00,0.0022
3662.00,0.0017
3649.00,0.0022
3636.00,0.0020
3623.00,0.0026
3610.00,0.0027
3597.00,0.0028
3584.00,0.0029
3571.00,0.0028
3558.00,0.0027
3545.00,0.0028
3532.00,0.0028
3519.00,0.0028
3506.00,0.0030
3493.00,0.0030
3480.00,0.0031
3467.00,0.0032
3454.00,0.0032
3441.00,0.0033
3428.00,0.0032
3415.00,0.0033
3402.00,0.0032
3389.00,0.0033
3376.00,0.0033
3363.00,0.0032
3350.00,0.0032
3337.00,0.0032
3324.00,0.0032
3311.00,0.0031
3298.00,0.0031
3285.00,0.0030
3272.00,0.0030
3259.00,0.0030
3246.00,0.0029
3233.00,0.0029
3220.00,0.0028
3207.00,0.0029
3194.00,0.0028
3181.00,0.0027
3168.00,0.0029
3155.00,0.0028
3142.00,0.0027
3129.00,0.0027
3116.00,0.0034
3103.00,0.0063
3090.00,0.0085
3077.00,0.0118
3064.00,0.0174
3051.00,0.0125
3038.00,0.0140
3025.00,0.0380
3012.00,0.0101
2999.00,0.0071
2986.00,0.0010
2973.00,0.0017
2960.00,0.0056
2947.00,0.0135
2934.00,0.0312
2921.00,0.0441
2908.00,0.0327
2895.00,0.0185
2882.00,0.0125
2869.00,0.0105
2856.00,0.0167
2843.00,0.0162
2830.00,0.0061
2817.00,0.0049
2804.00,0.0045
2791.00,0.0040
2778.00,0.0039
2765.00,0.0037
2752.00,0.0035
2739.00,0.0034
2726.00,0.0035
2713.00,0.0035
2700.00,0.0035
2687.00,0.0035
2674.00,0.0034
2661.00,0.0038
2648.00,0.0040
2635.00,0.0040
2622.00,0.0038
2609.00,0.0037
2596.00,0.0035
2583.00,0.0035
2570.00,0.0032
2557.00,0.0031
2544.00,0.0031
2531.00,0.0030
2518.00,0.0030
2505.00,0.0029
2492.00,0.0028
2479.00,0.0027
2466.00,0.0026
2453.00,0.0027
2440.00,0.0026
2427.00,0.0024
2414.00,0.0023
2401.00,0.0022
2388.00,0.0022
2375.00,0.0023
2362.00,0.0026
2349.00,0.0028
2336.00,0.0033
2323.00,0.0040
2310.00,0.0034
2297.00,0.0032
2284.00,0.0035
2271.00,0.0030
2258.00,0.0030
2245.00,0.0027
2232.00,0.0025
2219.00,0.0024
2206.00,0.0023
2193.00,0.0026
2180.00,0.0020
2167.00,0.0030
2154.00,-0.0006
2141.00,0.0001
2128.00,0.0004
2115.00,0.0020
2102.00,0.0018
2089.00,0.0018
2076.00,0.0020
2063.00,0.0014
2050.00,0.0025
2037.00,0.0017
2024.00,0.0009
2011.00,0.0011
1998.00,0.0013
1985.00,0.0026
1972.00,0.0016
1959.00,0.0028
1946.00,0.0056
1933.00,0.0037
1920.00,0.0021
1907.00,0.0020
1894.00,0.0031
1881.00,0.0048
1868.00,0.0054
1855.00,0.0030
1842.00,0.0021
1829.00,0.0027
1816.00,0.0042
1803.00,0.0063
1790.00,0.0040
1777.00,0.0033
1764.00,0.0035
1751.00,0.0054
1738.00,0.0060
1725.00,0.0050
1712.00,0.0044
1699.00,0.0040
1686.00,0.0042
1673.00,0.0048
1660.00,0.0044
1647.00,0.0035
1634.00,0.0033
1621.00,0.0043
1608.00,0.0143
1595.00,0.0181
1582.00,0.0144
1569.00,0.0044
1556.00,0.0042
1543.00,0.0061
1530.00,0.0044
1517.00,0.0042
1504.00,0.0081
1491.00,0.0800
1478.00,0.0101
1465.00,0.0101
1452.00,0.0922
1439.00,0.0321
1426.00,0.0098
1413.00,0.0071
1400.00,0.0059
1387.00,0.0105
1374.00,0.0182
1361.00,0.0172
1348.00,0.0155
1335.00,0.0141
1322.00,0.0149
1309.00,0.0155
1296.00,0.0125
1283.00,0.0111
1270.00,0.0081
1257.00,0.0070
1244.00,0.0073
1231.00,0.0073
1218.00,0.0082
1205.00,0.0106
1192.00,0.0131
1179.00,0.0161
1166.00,0.0090
1153.00,0.0159
1140.00,0.0060
1127.00,0.0067
1114.00,0.0089
1101.00,0.0092
1088.00,0.0112
1075.00,0.0192
1062.00,0.0187
1049.00,0.0127
1036.00,0.0188
1023.00,0.0323
1010.00,0.0172
997.00,0.0134
984.00,0.0153
971.00,0.0137
958.00,0.0132
945.00,0.0138
932.00,0.0096
919.00,0.0121
906.00,0.0295
893.00,0.0106
880.00,0.0075
867.00,0.0066
854.00,0.0074
841.00,0.0149
828.00,0.0064
815.00,0.0067
802.00,0.0073
789.00,0.0146
776.00,0.0378
763.00,0.0999
750.00,0.1280
737.00,0.0528
724.00,0.0146
711.00,0.0338
698.00,0.3535
685.00,0.1112
672.00,0.0500
659.00,0.0296
646.00,0.0190
633.00,0.0216
620.00,0.0257
607.00,0.0196
594.00,0.0218
581.00,0.0285
568.00,0.0484
555.00,0.0702
542.00,0.1103
529.00,0.0758
516.00,0.0373
503.00,0.0246
490.00,0.0184
477.00,0.0157
464.00,0.0140
451.00,0.0125
438.00,0.0123
425.00,0.0120
412.00,0.0114
400.00,0.0106