File: FTIR/Olivia/2025_08_06_1CBN_3PVP10_MP_Powder_Sigma3.csv
Created as New Dataset,Sample 007 By YargerLab Date Wednesday, August 06 2025
cm-1,A
4000.00,0.0008
3987.00,0.0007
3974.00,0.0007
3961.00,0.0007
3948.00,0.0006
3935.00,0.0007
3922.00,0.0006
3909.00,0.0007
3896.00,0.0006
3883.00,0.0005
3870.00,0.0005
3857.00,0.0005
3844.00,0.0006
3831.00,0.0006
3818.00,0.0004
3805.00,0.0005
3792.00,0.0007
3779.00,0.0008
3766.00,0.0007
3753.00,0.0005
3740.00,0.0005
3727.00,0.0005
3714.00,0.0006
3701.00,0.0007
3688.00,0.0006
3675.00,0.0007
3662.00,0.0012
3649.00,0.0012
3636.00,0.0018
3623.00,0.0023
3610.00,0.0027
3597.00,0.0036
3584.00,0.0042
3571.00,0.0054
3558.00,0.0064
3545.00,0.0072
3532.00,0.0081
3519.00,0.0088
3506.00,0.0096
3493.00,0.0100
3480.00,0.0103
3467.00,0.0108
3454.00,0.0112
3441.00,0.0115
3428.00,0.0118
3415.00,0.0120
3402.00,0.0123
3389.00,0.0122
3376.00,0.0119
3363.00,0.0112
3350.00,0.0106
3337.00,0.0101
3324.00,0.0097
3311.00,0.0095
3298.00,0.0093
3285.00,0.0092
3272.00,0.0090
3259.00,0.0088
3246.00,0.0085
3233.00,0.0081
3220.00,0.0077
3207.00,0.0073
3194.00,0.0068
3181.00,0.0063
3168.00,0.0057
3155.00,0.0053
3142.00,0.0048
3129.00,0.0044
3116.00,0.0040
3103.00,0.0038
3090.00,0.0035
3077.00,0.0032
3064.00,0.0030
3051.00,0.0028
3038.00,0.0026
3025.00,0.0025
3012.00,0.0029
2999.00,0.0043
2986.00,0.0057
2973.00,0.0076
2960.00,0.0088
2947.00,0.0089
2934.00,0.0092
2921.00,0.0092
2908.00,0.0080
2895.00,0.0076
2882.00,0.0075
2869.00,0.0071
2856.00,0.0069
2843.00,0.0048
2830.00,0.0036
2817.00,0.0029
2804.00,0.0024
2791.00,0.0022
2778.00,0.0021
2765.00,0.0020
2752.00,0.0019
2739.00,0.0019
2726.00,0.0020
2713.00,0.0019
2700.00,0.0018
2687.00,0.0017
2674.00,0.0017
2661.00,0.0020
2648.00,0.0021
2635.00,0.0020
2622.00,0.0019
2609.00,0.0018
2596.00,0.0018
2583.00,0.0017
2570.00,0.0016
2557.00,0.0014
2544.00,0.0014
2531.00,0.0012
2518.00,0.0013
2505.00,0.0012
2492.00,0.0012
2479.00,0.0011
2466.00,0.0011
2453.00,0.0012
2440.00,0.0011
2427.00,0.0010
2414.00,0.0010
2401.00,0.0009
2388.00,0.0009
2375.00,0.0008
2362.00,0.0009
2349.00,0.0011
2336.00,0.0013
2323.00,0.0024
2310.00,0.0016
2297.00,0.0019
2284.00,0.0022
2271.00,0.0019
2258.00,0.0017
2245.00,0.0015
2232.00,0.0016
2219.00,0.0015
2206.00,0.0016
2193.00,0.0019
2180.00,0.0014
2167.00,0.0026
2154.00,-0.0004
2141.00,0.0001
2128.00,0.0002
2115.00,0.0016
2102.00,0.0015
2089.00,0.0012
2076.00,0.0014
2063.00,0.0011
2050.00,0.0021
2037.00,0.0017
2024.00,0.0006
2011.00,0.0006
1998.00,0.0004
1985.00,0.0014
1972.00,0.0000
1959.00,-0.0004
1946.00,0.0000
1933.00,0.0001
1920.00,0.0004
1907.00,0.0004
1894.00,0.0006
1881.00,0.0005
1868.00,0.0005
1855.00,0.0007
1842.00,0.0004
1829.00,0.0006
1816.00,0.0004
1803.00,0.0007
1790.00,0.0007
1777.00,0.0008
1764.00,0.0009
1751.00,0.0011
1738.00,0.0013
1725.00,0.0019
1712.00,0.0030
1699.00,0.0072
1686.00,0.0229
1673.00,0.0417
1660.00,0.0596
1647.00,0.0679
1634.00,0.0497
1621.00,0.0362
1608.00,0.0237
1595.00,0.0137
1582.00,0.0125
1569.00,0.0089
1556.00,0.0061
1543.00,0.0053
1530.00,0.0049
1517.00,0.0054
1504.00,0.0086
1491.00,0.0150
1478.00,0.0082
1465.00,0.0243
1452.00,0.0202
1439.00,0.0342
1426.00,0.0386
1413.00,0.0241
1400.00,0.0150
1387.00,0.0129
1374.00,0.0163
1361.00,0.0144
1348.00,0.0108
1335.00,0.0104
1322.00,0.0162
1309.00,0.0162
1296.00,0.0304
1283.00,0.0475
1270.00,0.0419
1257.00,0.0236
1244.00,0.0199
1231.00,0.0230
1218.00,0.0228
1205.00,0.0184
1192.00,0.0178
1179.00,0.0145
1166.00,0.0154
1153.00,0.0153
1140.00,0.0105
1127.00,0.0139
1114.00,0.0113
1101.00,0.0128
1088.00,0.0102
1075.00,0.0109
1062.00,0.0128
1049.00,0.0168
1036.00,0.0130
1023.00,0.0164
1010.00,0.0122
997.00,0.0123
984.00,0.0091
971.00,0.0081
958.00,0.0076
945.00,0.0063
932.00,0.0100
919.00,0.0085
906.00,0.0086
893.00,0.0098
880.00,0.0086
867.00,0.0119
854.00,0.0142
841.00,0.0161
828.00,0.0135
815.00,0.0165
802.00,0.0105
789.00,0.0111
776.00,0.0131
763.00,0.0151
750.00,0.0186
737.00,0.0244
724.00,0.0224
711.00,0.0217
698.00,0.0234
685.00,0.0255
672.00,0.0296
659.00,0.0343
646.00,0.0384
633.00,0.0357
620.00,0.0357
607.00,0.0355
594.00,0.0389
581.00,0.0429
568.00,0.0446
555.00,0.0435
542.00,0.0432
529.00,0.0434
516.00,0.0411
503.00,0.0410
490.00,0.0424
477.00,0.0434
464.00,0.0429
451.00,0.0407
438.00,0.0388
425.00,0.0372
412.00,0.0365
400.00,0.0365