File: FTIR/Olivia/2025_07_28_Polystyrene_Std_scan1.csv
Created as New Dataset,Sample 932 By YargerLab Date Monday, July 28 2025
cm-1,A
4000.00,0.0013
3987.00,0.0012
3974.00,0.0012
3961.00,0.0012
3948.00,0.0011
3935.00,0.0012
3922.00,0.0012
3909.00,0.0012
3896.00,0.0011
3883.00,0.0010
3870.00,0.0009
3857.00,0.0012
3844.00,0.0011
3831.00,0.0011
3818.00,0.0010
3805.00,0.0011
3792.00,0.0012
3779.00,0.0011
3766.00,0.0011
3753.00,0.0010
3740.00,0.0009
3727.00,0.0010
3714.00,0.0010
3701.00,0.0011
3688.00,0.0008
3675.00,0.0010
3662.00,0.0010
3649.00,0.0010
3636.00,0.0010
3623.00,0.0010
3610.00,0.0010
3597.00,0.0011
3584.00,0.0011
3571.00,0.0012
3558.00,0.0013
3545.00,0.0014
3532.00,0.0015
3519.00,0.0016
3506.00,0.0016
3493.00,0.0017
3480.00,0.0018
3467.00,0.0018
3454.00,0.0019
3441.00,0.0020
3428.00,0.0019
3415.00,0.0019
3402.00,0.0019
3389.00,0.0019
3376.00,0.0019
3363.00,0.0019
3350.00,0.0019
3337.00,0.0019
3324.00,0.0019
3311.00,0.0019
3298.00,0.0019
3285.00,0.0019
3272.00,0.0019
3259.00,0.0019
3246.00,0.0018
3233.00,0.0018
3220.00,0.0018
3207.00,0.0019
3194.00,0.0018
3181.00,0.0017
3168.00,0.0019
3155.00,0.0018
3142.00,0.0017
3129.00,0.0018
3116.00,0.0023
3103.00,0.0048
3090.00,0.0070
3077.00,0.0096
3064.00,0.0145
3051.00,0.0102
3038.00,0.0118
3025.00,0.0318
3012.00,0.0088
2999.00,0.0080
2986.00,0.0041
2973.00,0.0046
2960.00,0.0078
2947.00,0.0143
2934.00,0.0294
2921.00,0.0403
2908.00,0.0302
2895.00,0.0178
2882.00,0.0124
2869.00,0.0103
2856.00,0.0156
2843.00,0.0140
2830.00,0.0049
2817.00,0.0037
2804.00,0.0032
2791.00,0.0028
2778.00,0.0027
2765.00,0.0024
2752.00,0.0023
2739.00,0.0023
2726.00,0.0024
2713.00,0.0023
2700.00,0.0023
2687.00,0.0023
2674.00,0.0023
2661.00,0.0026
2648.00,0.0028
2635.00,0.0029
2622.00,0.0026
2609.00,0.0025
2596.00,0.0023
2583.00,0.0022
2570.00,0.0020
2557.00,0.0019
2544.00,0.0018
2531.00,0.0018
2518.00,0.0017
2505.00,0.0016
2492.00,0.0015
2479.00,0.0015
2466.00,0.0014
2453.00,0.0016
2440.00,0.0014
2427.00,0.0010
2414.00,0.0011
2401.00,0.0009
2388.00,0.0009
2375.00,0.0010
2362.00,0.0013
2349.00,0.0016
2336.00,0.0021
2323.00,0.0031
2310.00,0.0023
2297.00,0.0021
2284.00,0.0024
2271.00,0.0017
2258.00,0.0016
2245.00,0.0014
2232.00,0.0014
2219.00,0.0012
2206.00,0.0011
2193.00,0.0012
2180.00,0.0006
2167.00,0.0020
2154.00,-0.0020
2141.00,-0.0011
2128.00,-0.0007
2115.00,0.0007
2102.00,0.0007
2089.00,0.0005
2076.00,0.0008
2063.00,0.0003
2050.00,0.0012
2037.00,0.0008
2024.00,-0.0003
2011.00,0.0000
1998.00,0.0001
1985.00,0.0016
1972.00,0.0003
1959.00,0.0016
1946.00,0.0039
1933.00,0.0022
1920.00,0.0010
1907.00,0.0009
1894.00,0.0019
1881.00,0.0033
1868.00,0.0040
1855.00,0.0017
1842.00,0.0009
1829.00,0.0016
1816.00,0.0027
1803.00,0.0047
1790.00,0.0027
1777.00,0.0023
1764.00,0.0027
1751.00,0.0047
1738.00,0.0057
1725.00,0.0046
1712.00,0.0039
1699.00,0.0042
1686.00,0.0053
1673.00,0.0058
1660.00,0.0054
1647.00,0.0040
1634.00,0.0033
1621.00,0.0042
1608.00,0.0126
1595.00,0.0152
1582.00,0.0122
1569.00,0.0035
1556.00,0.0033
1543.00,0.0048
1530.00,0.0033
1517.00,0.0032
1504.00,0.0065
1491.00,0.0654
1478.00,0.0084
1465.00,0.0093
1452.00,0.0757
1439.00,0.0276
1426.00,0.0092
1413.00,0.0065
1400.00,0.0062
1387.00,0.0099
1374.00,0.0158
1361.00,0.0149
1348.00,0.0131
1335.00,0.0120
1322.00,0.0127
1309.00,0.0129
1296.00,0.0109
1283.00,0.0101
1270.00,0.0079
1257.00,0.0069
1244.00,0.0072
1231.00,0.0071
1218.00,0.0073
1205.00,0.0091
1192.00,0.0113
1179.00,0.0142
1166.00,0.0086
1153.00,0.0145
1140.00,0.0061
1127.00,0.0060
1114.00,0.0083
1101.00,0.0086
1088.00,0.0103
1075.00,0.0167
1062.00,0.0169
1049.00,0.0111
1036.00,0.0159
1023.00,0.0260
1010.00,0.0140
997.00,0.0109
984.00,0.0124
971.00,0.0120
958.00,0.0113
945.00,0.0108
932.00,0.0080
919.00,0.0097
906.00,0.0239
893.00,0.0085
880.00,0.0061
867.00,0.0055
854.00,0.0061
841.00,0.0122
828.00,0.0056
815.00,0.0055
802.00,0.0061
789.00,0.0117
776.00,0.0300
763.00,0.0795
750.00,0.1038
737.00,0.0441
724.00,0.0118
711.00,0.0274
698.00,0.2490
685.00,0.0922
672.00,0.0410
659.00,0.0243
646.00,0.0157
633.00,0.0173
620.00,0.0209
607.00,0.0160
594.00,0.0181
581.00,0.0235
568.00,0.0392
555.00,0.0564
542.00,0.0888
529.00,0.0629
516.00,0.0301
503.00,0.0194
490.00,0.0150
477.00,0.0129
464.00,0.0124
451.00,0.0112
438.00,0.0110
425.00,0.0096
412.00,0.0092
400.00,0.0066