File: FTIR/Olivia/2025_06_06_Crystalline_Felodipine_Scan2.csv
Created as New Dataset,Sample 624 By YargerLab Date Friday, June 06 2025
cm-1,A
4000.00,0.0098
3987.00,0.0099
3974.00,0.0099
3961.00,0.0099
3948.00,0.0097
3935.00,0.0098
3922.00,0.0099
3909.00,0.0099
3896.00,0.0095
3883.00,0.0094
3870.00,0.0094
3857.00,0.0093
3844.00,0.0093
3831.00,0.0093
3818.00,0.0091
3805.00,0.0093
3792.00,0.0094
3779.00,0.0094
3766.00,0.0092
3753.00,0.0091
3740.00,0.0091
3727.00,0.0091
3714.00,0.0090
3701.00,0.0090
3688.00,0.0087
3675.00,0.0080
3662.00,0.0079
3649.00,0.0077
3636.00,0.0081
3623.00,0.0084
3610.00,0.0084
3597.00,0.0085
3584.00,0.0085
3571.00,0.0086
3558.00,0.0086
3545.00,0.0086
3532.00,0.0086
3519.00,0.0085
3506.00,0.0085
3493.00,0.0084
3480.00,0.0084
3467.00,0.0083
3454.00,0.0082
3441.00,0.0084
3428.00,0.0087
3415.00,0.0095
3402.00,0.0117
3389.00,0.0195
3376.00,0.0497
3363.00,0.0586
3350.00,0.0366
3337.00,0.0255
3324.00,0.0207
3311.00,0.0186
3298.00,0.0168
3285.00,0.0149
3272.00,0.0134
3259.00,0.0130
3246.00,0.0129
3233.00,0.0130
3220.00,0.0123
3207.00,0.0114
3194.00,0.0109
3181.00,0.0106
3168.00,0.0104
3155.00,0.0105
3142.00,0.0107
3129.00,0.0109
3116.00,0.0117
3103.00,0.0128
3090.00,0.0127
3077.00,0.0127
3064.00,0.0123
3051.00,0.0117
3038.00,0.0110
3025.00,0.0117
3012.00,0.0125
2999.00,0.0135
2986.00,0.0162
2973.00,0.0113
2960.00,0.0155
2947.00,0.0219
2934.00,0.0183
2921.00,0.0134
2908.00,0.0126
2895.00,0.0121
2882.00,0.0116
2869.00,0.0114
2856.00,0.0110
2843.00,0.0121
2830.00,0.0118
2817.00,0.0115
2804.00,0.0119
2791.00,0.0111
2778.00,0.0102
2765.00,0.0100
2752.00,0.0099
2739.00,0.0096
2726.00,0.0094
2713.00,0.0092
2700.00,0.0094
2687.00,0.0093
2674.00,0.0090
2661.00,0.0094
2648.00,0.0095
2635.00,0.0096
2622.00,0.0098
2609.00,0.0098
2596.00,0.0096
2583.00,0.0092
2570.00,0.0090
2557.00,0.0090
2544.00,0.0087
2531.00,0.0085
2518.00,0.0088
2505.00,0.0088
2492.00,0.0087
2479.00,0.0088
2466.00,0.0086
2453.00,0.0085
2440.00,0.0083
2427.00,0.0082
2414.00,0.0082
2401.00,0.0078
2388.00,0.0077
2375.00,0.0074
2362.00,0.0074
2349.00,0.0076
2336.00,0.0078
2323.00,0.0089
2310.00,0.0078
2297.00,0.0082
2284.00,0.0086
2271.00,0.0079
2258.00,0.0078
2245.00,0.0076
2232.00,0.0072
2219.00,0.0069
2206.00,0.0064
2193.00,0.0063
2180.00,0.0061
2167.00,0.0079
2154.00,0.0044
2141.00,0.0049
2128.00,0.0052
2115.00,0.0063
2102.00,0.0067
2089.00,0.0065
2076.00,0.0066
2063.00,0.0061
2050.00,0.0066
2037.00,0.0053
2024.00,0.0050
2011.00,0.0056
1998.00,0.0054
1985.00,0.0061
1972.00,0.0045
1959.00,0.0039
1946.00,0.0045
1933.00,0.0051
1920.00,0.0061
1907.00,0.0060
1894.00,0.0052
1881.00,0.0055
1868.00,0.0054
1855.00,0.0062
1842.00,0.0053
1829.00,0.0050
1816.00,0.0047
1803.00,0.0054
1790.00,0.0060
1777.00,0.0058
1764.00,0.0064
1751.00,0.0075
1738.00,0.0084
1725.00,0.0111
1712.00,0.0277
1699.00,0.1467
1686.00,0.1723
1673.00,0.0667
1660.00,0.0403
1647.00,0.0701
1634.00,0.0578
1621.00,0.1040
1608.00,0.0634
1595.00,0.0350
1582.00,0.0281
1569.00,0.0180
1556.00,0.0160
1543.00,0.0139
1530.00,0.0166
1517.00,0.0267
1504.00,0.0901
1491.00,0.1728
1478.00,0.0905
1465.00,0.0653
1452.00,0.0611
1439.00,0.0680
1426.00,0.0766
1413.00,0.0834
1400.00,0.0381
1387.00,0.0522
1374.00,0.0510
1361.00,0.0446
1348.00,0.0178
1335.00,0.0173
1322.00,0.0245
1309.00,0.0896
1296.00,0.0522
1283.00,0.1228
1270.00,0.1445
1257.00,0.0528
1244.00,0.0354
1231.00,0.0302
1218.00,0.0565
1205.00,0.1880
1192.00,0.1326
1179.00,0.0915
1166.00,0.0603
1153.00,0.0498
1140.00,0.1259
1127.00,0.0860
1114.00,0.1699
1101.00,0.2018
1088.00,0.1688
1075.00,0.0870
1062.00,0.1164
1049.00,0.0937
1036.00,0.1076
1023.00,0.1416
1010.00,0.0893
997.00,0.0626
984.00,0.0555
971.00,0.0559
958.00,0.0462
945.00,0.0346
932.00,0.0298
919.00,0.0273
906.00,0.0257
893.00,0.0243
880.00,0.0248
867.00,0.0475
854.00,0.0548
841.00,0.0263
828.00,0.0255
815.00,0.0256
802.00,0.1202
789.00,0.0396
776.00,0.0451
763.00,0.0455
750.00,0.0362
737.00,0.0881
724.00,0.1540
711.00,0.0401
698.00,0.0270
685.00,0.0322
672.00,0.0680
659.00,0.0326
646.00,0.0298
633.00,0.0384
620.00,0.0696
607.00,0.0574
594.00,0.0549
581.00,0.0555
568.00,0.1036
555.00,0.0944
542.00,0.0715
529.00,0.0462
516.00,0.0328
503.00,0.0278
490.00,0.0241
477.00,0.0238
464.00,0.0487
451.00,0.0312
438.00,0.0217
425.00,0.0255
412.00,0.0350
400.00,0.0339