File: FTIR/Olivia/2025_08_01_1CBN_3PVP10kDa_MC_glass_scan2.csv
Created as New Dataset,Sample 1018 By YargerLab Date Friday, August 01 2025
cm-1,A
4000.00,0.0033
3987.00,0.0033
3974.00,0.0032
3961.00,0.0033
3948.00,0.0032
3935.00,0.0033
3922.00,0.0032
3909.00,0.0032
3896.00,0.0031
3883.00,0.0031
3870.00,0.0031
3857.00,0.0031
3844.00,0.0032
3831.00,0.0031
3818.00,0.0029
3805.00,0.0031
3792.00,0.0032
3779.00,0.0032
3766.00,0.0031
3753.00,0.0031
3740.00,0.0029
3727.00,0.0030
3714.00,0.0030
3701.00,0.0030
3688.00,0.0030
3675.00,0.0031
3662.00,0.0033
3649.00,0.0034
3636.00,0.0039
3623.00,0.0042
3610.00,0.0046
3597.00,0.0051
3584.00,0.0058
3571.00,0.0065
3558.00,0.0073
3545.00,0.0079
3532.00,0.0084
3519.00,0.0089
3506.00,0.0093
3493.00,0.0097
3480.00,0.0100
3467.00,0.0103
3454.00,0.0105
3441.00,0.0106
3428.00,0.0107
3415.00,0.0106
3402.00,0.0105
3389.00,0.0104
3376.00,0.0103
3363.00,0.0100
3350.00,0.0098
3337.00,0.0097
3324.00,0.0096
3311.00,0.0094
3298.00,0.0093
3285.00,0.0093
3272.00,0.0092
3259.00,0.0090
3246.00,0.0089
3233.00,0.0087
3220.00,0.0085
3207.00,0.0084
3194.00,0.0081
3181.00,0.0080
3168.00,0.0078
3155.00,0.0077
3142.00,0.0075
3129.00,0.0074
3116.00,0.0072
3103.00,0.0071
3090.00,0.0070
3077.00,0.0070
3064.00,0.0068
3051.00,0.0067
3038.00,0.0067
3025.00,0.0066
3012.00,0.0068
2999.00,0.0081
2986.00,0.0111
2973.00,0.0134
2960.00,0.0154
2947.00,0.0159
2934.00,0.0161
2921.00,0.0165
2908.00,0.0142
2895.00,0.0133
2882.00,0.0132
2869.00,0.0136
2856.00,0.0128
2843.00,0.0099
2830.00,0.0081
2817.00,0.0069
2804.00,0.0063
2791.00,0.0060
2778.00,0.0057
2765.00,0.0055
2752.00,0.0055
2739.00,0.0056
2726.00,0.0055
2713.00,0.0054
2700.00,0.0053
2687.00,0.0052
2674.00,0.0051
2661.00,0.0053
2648.00,0.0054
2635.00,0.0052
2622.00,0.0051
2609.00,0.0049
2596.00,0.0048
2583.00,0.0047
2570.00,0.0045
2557.00,0.0045
2544.00,0.0044
2531.00,0.0042
2518.00,0.0040
2505.00,0.0039
2492.00,0.0039
2479.00,0.0039
2466.00,0.0039
2453.00,0.0040
2440.00,0.0039
2427.00,0.0037
2414.00,0.0037
2401.00,0.0035
2388.00,0.0034
2375.00,0.0033
2362.00,0.0034
2349.00,0.0036
2336.00,0.0037
2323.00,0.0049
2310.00,0.0038
2297.00,0.0042
2284.00,0.0046
2271.00,0.0042
2258.00,0.0040
2245.00,0.0039
2232.00,0.0039
2219.00,0.0040
2206.00,0.0039
2193.00,0.0042
2180.00,0.0039
2167.00,0.0047
2154.00,0.0019
2141.00,0.0024
2128.00,0.0024
2115.00,0.0037
2102.00,0.0036
2089.00,0.0034
2076.00,0.0036
2063.00,0.0035
2050.00,0.0043
2037.00,0.0039
2024.00,0.0030
2011.00,0.0032
1998.00,0.0029
1985.00,0.0038
1972.00,0.0023
1959.00,0.0019
1946.00,0.0025
1933.00,0.0026
1920.00,0.0026
1907.00,0.0027
1894.00,0.0028
1881.00,0.0028
1868.00,0.0028
1855.00,0.0029
1842.00,0.0029
1829.00,0.0028
1816.00,0.0025
1803.00,0.0029
1790.00,0.0029
1777.00,0.0029
1764.00,0.0031
1751.00,0.0031
1738.00,0.0031
1725.00,0.0040
1712.00,0.0059
1699.00,0.0155
1686.00,0.0409
1673.00,0.0615
1660.00,0.0709
1647.00,0.0657
1634.00,0.0416
1621.00,0.0328
1608.00,0.0259
1595.00,0.0158
1582.00,0.0193
1569.00,0.0125
1556.00,0.0097
1543.00,0.0085
1530.00,0.0085
1517.00,0.0096
1504.00,0.0125
1491.00,0.0196
1478.00,0.0118
1465.00,0.0273
1452.00,0.0254
1439.00,0.0371
1426.00,0.0465
1413.00,0.0331
1400.00,0.0251
1387.00,0.0178
1374.00,0.0219
1361.00,0.0204
1348.00,0.0143
1335.00,0.0148
1322.00,0.0204
1309.00,0.0202
1296.00,0.0336
1283.00,0.0546
1270.00,0.0491
1257.00,0.0293
1244.00,0.0247
1231.00,0.0285
1218.00,0.0285
1205.00,0.0217
1192.00,0.0234
1179.00,0.0181
1166.00,0.0199
1153.00,0.0213
1140.00,0.0147
1127.00,0.0196
1114.00,0.0142
1101.00,0.0166
1088.00,0.0139
1075.00,0.0153
1062.00,0.0254
1049.00,0.0197
1036.00,0.0178
1023.00,0.0173
1010.00,0.0150
997.00,0.0154
984.00,0.0123
971.00,0.0115
958.00,0.0106
945.00,0.0104
932.00,0.0142
919.00,0.0127
906.00,0.0123
893.00,0.0141
880.00,0.0134
867.00,0.0166
854.00,0.0188
841.00,0.0211
828.00,0.0201
815.00,0.0192
802.00,0.0134
789.00,0.0133
776.00,0.0143
763.00,0.0152
750.00,0.0186
737.00,0.0237
724.00,0.0193
711.00,0.0176
698.00,0.0179
685.00,0.0207
672.00,0.0228
659.00,0.0287
646.00,0.0328
633.00,0.0281
620.00,0.0262
607.00,0.0265
594.00,0.0278
581.00,0.0345
568.00,0.0352
555.00,0.0319
542.00,0.0295
529.00,0.0307
516.00,0.0292
503.00,0.0298
490.00,0.0298
477.00,0.0305
464.00,0.0302
451.00,0.0287
438.00,0.0262
425.00,0.0253
412.00,0.0261
400.00,0.0253