File: FTIR/Olivia/2025_08_04_1CBN_3PVP90kDa_MortPest_powder_scan2.csv
Created as New Dataset,Sample 1052 By YargerLab Date Monday, August 04 2025
cm-1,A
4000.00,0.0043
3987.00,0.0042
3974.00,0.0042
3961.00,0.0042
3948.00,0.0042
3935.00,0.0042
3922.00,0.0042
3909.00,0.0042
3896.00,0.0042
3883.00,0.0041
3870.00,0.0041
3857.00,0.0041
3844.00,0.0041
3831.00,0.0042
3818.00,0.0041
3805.00,0.0040
3792.00,0.0041
3779.00,0.0041
3766.00,0.0041
3753.00,0.0040
3740.00,0.0040
3727.00,0.0040
3714.00,0.0040
3701.00,0.0040
3688.00,0.0039
3675.00,0.0040
3662.00,0.0042
3649.00,0.0042
3636.00,0.0045
3623.00,0.0047
3610.00,0.0050
3597.00,0.0054
3584.00,0.0059
3571.00,0.0063
3558.00,0.0070
3545.00,0.0076
3532.00,0.0083
3519.00,0.0089
3506.00,0.0095
3493.00,0.0104
3480.00,0.0114
3467.00,0.0128
3454.00,0.0144
3441.00,0.0162
3428.00,0.0186
3415.00,0.0215
3402.00,0.0231
3389.00,0.0225
3376.00,0.0207
3363.00,0.0190
3350.00,0.0179
3337.00,0.0173
3324.00,0.0173
3311.00,0.0177
3298.00,0.0185
3285.00,0.0195
3272.00,0.0204
3259.00,0.0215
3246.00,0.0223
3233.00,0.0225
3220.00,0.0221
3207.00,0.0211
3194.00,0.0193
3181.00,0.0176
3168.00,0.0158
3155.00,0.0139
3142.00,0.0124
3129.00,0.0112
3116.00,0.0103
3103.00,0.0092
3090.00,0.0090
3077.00,0.0089
3064.00,0.0086
3051.00,0.0087
3038.00,0.0089
3025.00,0.0087
3012.00,0.0082
2999.00,0.0107
2986.00,0.0153
2973.00,0.0229
2960.00,0.0303
2947.00,0.0236
2934.00,0.0371
2921.00,0.0434
2908.00,0.0282
2895.00,0.0212
2882.00,0.0186
2869.00,0.0228
2856.00,0.0339
2843.00,0.0194
2830.00,0.0119
2817.00,0.0095
2804.00,0.0086
2791.00,0.0078
2778.00,0.0073
2765.00,0.0070
2752.00,0.0070
2739.00,0.0073
2726.00,0.0076
2713.00,0.0072
2700.00,0.0070
2687.00,0.0067
2674.00,0.0066
2661.00,0.0071
2648.00,0.0072
2635.00,0.0070
2622.00,0.0065
2609.00,0.0065
2596.00,0.0067
2583.00,0.0066
2570.00,0.0065
2557.00,0.0062
2544.00,0.0060
2531.00,0.0061
2518.00,0.0057
2505.00,0.0056
2492.00,0.0054
2479.00,0.0053
2466.00,0.0053
2453.00,0.0053
2440.00,0.0052
2427.00,0.0050
2414.00,0.0050
2401.00,0.0049
2388.00,0.0048
2375.00,0.0046
2362.00,0.0045
2349.00,0.0053
2336.00,0.0048
2323.00,0.0058
2310.00,0.0052
2297.00,0.0054
2284.00,0.0058
2271.00,0.0051
2258.00,0.0047
2245.00,0.0048
2232.00,0.0047
2219.00,0.0048
2206.00,0.0047
2193.00,0.0049
2180.00,0.0043
2167.00,0.0056
2154.00,0.0023
2141.00,0.0032
2128.00,0.0034
2115.00,0.0044
2102.00,0.0040
2089.00,0.0040
2076.00,0.0044
2063.00,0.0036
2050.00,0.0042
2037.00,0.0041
2024.00,0.0038
2011.00,0.0032
1998.00,0.0032
1985.00,0.0041
1972.00,0.0030
1959.00,0.0029
1946.00,0.0034
1933.00,0.0034
1920.00,0.0039
1907.00,0.0051
1894.00,0.0047
1881.00,0.0040
1868.00,0.0043
1855.00,0.0042
1842.00,0.0044
1829.00,0.0043
1816.00,0.0039
1803.00,0.0045
1790.00,0.0046
1777.00,0.0050
1764.00,0.0050
1751.00,0.0053
1738.00,0.0054
1725.00,0.0064
1712.00,0.0078
1699.00,0.0114
1686.00,0.0210
1673.00,0.0314
1660.00,0.0390
1647.00,0.0413
1634.00,0.0384
1621.00,0.0675
1608.00,0.0487
1595.00,0.0255
1582.00,0.0470
1569.00,0.0288
1556.00,0.0144
1543.00,0.0121
1530.00,0.0107
1517.00,0.0138
1504.00,0.0185
1491.00,0.0279
1478.00,0.0152
1465.00,0.0394
1452.00,0.0339
1439.00,0.0488
1426.00,0.0595
1413.00,0.0422
1400.00,0.0570
1387.00,0.0395
1374.00,0.0329
1361.00,0.0460
1348.00,0.0351
1335.00,0.0264
1322.00,0.0294
1309.00,0.0278
1296.00,0.0479
1283.00,0.0601
1270.00,0.0417
1257.00,0.0283
1244.00,0.0364
1231.00,0.0489
1218.00,0.0374
1205.00,0.0295
1192.00,0.0494
1179.00,0.0230
1166.00,0.0218
1153.00,0.0468
1140.00,0.0200
1127.00,0.0563
1114.00,0.0268
1101.00,0.0363
1088.00,0.0178
1075.00,0.0175
1062.00,0.0297
1049.00,0.0743
1036.00,0.0380
1023.00,0.0559
1010.00,0.0251
997.00,0.0304
984.00,0.0180
971.00,0.0166
958.00,0.0152
945.00,0.0137
932.00,0.0197
919.00,0.0195
906.00,0.0140
893.00,0.0198
880.00,0.0171
867.00,0.0443
854.00,0.0336
841.00,0.0319
828.00,0.0328
815.00,0.0599
802.00,0.0173
789.00,0.0159
776.00,0.0209
763.00,0.0203
750.00,0.0226
737.00,0.0376
724.00,0.0329
711.00,0.0327
698.00,0.0358
685.00,0.0375
672.00,0.0455
659.00,0.0469
646.00,0.0438
633.00,0.0415
620.00,0.0476
607.00,0.0470
594.00,0.0566
581.00,0.0565
568.00,0.0542
555.00,0.0572
542.00,0.0601
529.00,0.0594
516.00,0.0471
503.00,0.0476
490.00,0.0472
477.00,0.0441
464.00,0.0431
451.00,0.0420
438.00,0.0432
425.00,0.0416
412.00,0.0428
400.00,0.0415