File: FTIR/Olivia/2025_07_29_CBN_PVP90kDa_MC_1to3_Powder_scan3.csv
Created as New Dataset,Sample 956 By YargerLab Date Tuesday, July 29 2025
cm-1,A
4000.00,0.0066
3987.00,0.0066
3974.00,0.0066
3961.00,0.0066
3948.00,0.0065
3935.00,0.0065
3922.00,0.0066
3909.00,0.0065
3896.00,0.0065
3883.00,0.0064
3870.00,0.0064
3857.00,0.0065
3844.00,0.0063
3831.00,0.0062
3818.00,0.0062
3805.00,0.0062
3792.00,0.0062
3779.00,0.0063
3766.00,0.0062
3753.00,0.0062
3740.00,0.0061
3727.00,0.0060
3714.00,0.0060
3701.00,0.0059
3688.00,0.0058
3675.00,0.0058
3662.00,0.0059
3649.00,0.0058
3636.00,0.0059
3623.00,0.0059
3610.00,0.0061
3597.00,0.0063
3584.00,0.0065
3571.00,0.0067
3558.00,0.0073
3545.00,0.0079
3532.00,0.0088
3519.00,0.0097
3506.00,0.0105
3493.00,0.0117
3480.00,0.0135
3467.00,0.0157
3454.00,0.0185
3441.00,0.0218
3428.00,0.0262
3415.00,0.0315
3402.00,0.0350
3389.00,0.0342
3376.00,0.0312
3363.00,0.0284
3350.00,0.0266
3337.00,0.0256
3324.00,0.0257
3311.00,0.0266
3298.00,0.0280
3285.00,0.0298
3272.00,0.0319
3259.00,0.0341
3246.00,0.0361
3233.00,0.0369
3220.00,0.0369
3207.00,0.0352
3194.00,0.0326
3181.00,0.0297
3168.00,0.0267
3155.00,0.0233
3142.00,0.0207
3129.00,0.0186
3116.00,0.0169
3103.00,0.0151
3090.00,0.0149
3077.00,0.0147
3064.00,0.0141
3051.00,0.0144
3038.00,0.0149
3025.00,0.0144
3012.00,0.0130
2999.00,0.0173
2986.00,0.0254
2973.00,0.0391
2960.00,0.0519
2947.00,0.0390
2934.00,0.0652
2921.00,0.0769
2908.00,0.0489
2895.00,0.0356
2882.00,0.0303
2869.00,0.0390
2856.00,0.0604
2843.00,0.0344
2830.00,0.0208
2817.00,0.0167
2804.00,0.0149
2791.00,0.0135
2778.00,0.0125
2765.00,0.0120
2752.00,0.0121
2739.00,0.0126
2726.00,0.0132
2713.00,0.0124
2700.00,0.0121
2687.00,0.0116
2674.00,0.0114
2661.00,0.0121
2648.00,0.0123
2635.00,0.0118
2622.00,0.0110
2609.00,0.0109
2596.00,0.0112
2583.00,0.0114
2570.00,0.0110
2557.00,0.0104
2544.00,0.0103
2531.00,0.0103
2518.00,0.0098
2505.00,0.0095
2492.00,0.0091
2479.00,0.0090
2466.00,0.0087
2453.00,0.0089
2440.00,0.0086
2427.00,0.0084
2414.00,0.0082
2401.00,0.0081
2388.00,0.0080
2375.00,0.0076
2362.00,0.0076
2349.00,0.0077
2336.00,0.0078
2323.00,0.0087
2310.00,0.0077
2297.00,0.0082
2284.00,0.0088
2271.00,0.0079
2258.00,0.0072
2245.00,0.0072
2232.00,0.0075
2219.00,0.0072
2206.00,0.0073
2193.00,0.0070
2180.00,0.0068
2167.00,0.0079
2154.00,0.0044
2141.00,0.0050
2128.00,0.0053
2115.00,0.0061
2102.00,0.0058
2089.00,0.0058
2076.00,0.0062
2063.00,0.0058
2050.00,0.0057
2037.00,0.0060
2024.00,0.0052
2011.00,0.0049
1998.00,0.0050
1985.00,0.0058
1972.00,0.0045
1959.00,0.0047
1946.00,0.0053
1933.00,0.0055
1920.00,0.0060
1907.00,0.0086
1894.00,0.0074
1881.00,0.0061
1868.00,0.0062
1855.00,0.0064
1842.00,0.0068
1829.00,0.0061
1816.00,0.0060
1803.00,0.0064
1790.00,0.0068
1777.00,0.0071
1764.00,0.0070
1751.00,0.0069
1738.00,0.0068
1725.00,0.0081
1712.00,0.0094
1699.00,0.0107
1686.00,0.0146
1673.00,0.0184
1660.00,0.0224
1647.00,0.0221
1634.00,0.0286
1621.00,0.1029
1608.00,0.0764
1595.00,0.0371
1582.00,0.0858
1569.00,0.0510
1556.00,0.0227
1543.00,0.0180
1530.00,0.0156
1517.00,0.0212
1504.00,0.0285
1491.00,0.0419
1478.00,0.0219
1465.00,0.0576
1452.00,0.0505
1439.00,0.0703
1426.00,0.0861
1413.00,0.0613
1400.00,0.1062
1387.00,0.0714
1374.00,0.0527
1361.00,0.0840
1348.00,0.0651
1335.00,0.0462
1322.00,0.0451
1309.00,0.0423
1296.00,0.0712
1283.00,0.0803
1270.00,0.0408
1257.00,0.0300
1244.00,0.0541
1231.00,0.0796
1218.00,0.0550
1205.00,0.0432
1192.00,0.0887
1179.00,0.0337
1166.00,0.0294
1153.00,0.0870
1140.00,0.0317
1127.00,0.1099
1114.00,0.0471
1101.00,0.0669
1088.00,0.0277
1075.00,0.0260
1062.00,0.0526
1049.00,0.1502
1036.00,0.0728
1023.00,0.1112
1010.00,0.0444
997.00,0.0570
984.00,0.0318
971.00,0.0289
958.00,0.0263
945.00,0.0224
932.00,0.0332
919.00,0.0347
906.00,0.0212
893.00,0.0326
880.00,0.0274
867.00,0.0887
854.00,0.0596
841.00,0.0531
828.00,0.0598
815.00,0.1240
802.00,0.0264
789.00,0.0212
776.00,0.0307
763.00,0.0256
750.00,0.0252
737.00,0.0553
724.00,0.0470
711.00,0.0471
698.00,0.0516
685.00,0.0528
672.00,0.0671
659.00,0.0631
646.00,0.0464
633.00,0.0437
620.00,0.0605
607.00,0.0581
594.00,0.0796
581.00,0.0714
568.00,0.0601
555.00,0.0717
542.00,0.0804
529.00,0.0815
516.00,0.0481
503.00,0.0490
490.00,0.0484
477.00,0.0374
464.00,0.0342
451.00,0.0331
438.00,0.0342
425.00,0.0293
412.00,0.0372
400.00,0.0326