File: FTIR/Olivia/2025_08_15_1CBG_3PVP29_silicone_powder_scan1.csv
Created as New Dataset,Sample 121 By YargerLab Date Friday, August 15 2025
cm-1,A
4000.00,0.0056
3987.00,0.0056
3974.00,0.0056
3961.00,0.0056
3948.00,0.0055
3935.00,0.0055
3922.00,0.0055
3909.00,0.0056
3896.00,0.0055
3883.00,0.0053
3870.00,0.0054
3857.00,0.0055
3844.00,0.0055
3831.00,0.0054
3818.00,0.0054
3805.00,0.0054
3792.00,0.0055
3779.00,0.0056
3766.00,0.0055
3753.00,0.0054
3740.00,0.0052
3727.00,0.0054
3714.00,0.0054
3701.00,0.0055
3688.00,0.0057
3675.00,0.0061
3662.00,0.0067
3649.00,0.0069
3636.00,0.0080
3623.00,0.0090
3610.00,0.0100
3597.00,0.0113
3584.00,0.0129
3571.00,0.0145
3558.00,0.0161
3545.00,0.0179
3532.00,0.0193
3519.00,0.0206
3506.00,0.0219
3493.00,0.0230
3480.00,0.0241
3467.00,0.0250
3454.00,0.0258
3441.00,0.0266
3428.00,0.0273
3415.00,0.0278
3402.00,0.0284
3389.00,0.0289
3376.00,0.0294
3363.00,0.0298
3350.00,0.0300
3337.00,0.0303
3324.00,0.0307
3311.00,0.0309
3298.00,0.0314
3285.00,0.0318
3272.00,0.0313
3259.00,0.0314
3246.00,0.0310
3233.00,0.0305
3220.00,0.0300
3207.00,0.0295
3194.00,0.0289
3181.00,0.0280
3168.00,0.0269
3155.00,0.0257
3142.00,0.0246
3129.00,0.0238
3116.00,0.0228
3103.00,0.0216
3090.00,0.0203
3077.00,0.0193
3064.00,0.0185
3051.00,0.0178
3038.00,0.0171
3025.00,0.0169
3012.00,0.0172
2999.00,0.0203
2986.00,0.0266
2973.00,0.0322
2960.00,0.0402
2947.00,0.0404
2934.00,0.0442
2921.00,0.0484
2908.00,0.0422
2895.00,0.0375
2882.00,0.0353
2869.00,0.0353
2856.00,0.0360
2843.00,0.0274
2830.00,0.0209
2817.00,0.0166
2804.00,0.0146
2791.00,0.0135
2778.00,0.0130
2765.00,0.0125
2752.00,0.0124
2739.00,0.0125
2726.00,0.0126
2713.00,0.0124
2700.00,0.0122
2687.00,0.0119
2674.00,0.0117
2661.00,0.0117
2648.00,0.0115
2635.00,0.0111
2622.00,0.0107
2609.00,0.0104
2596.00,0.0102
2583.00,0.0102
2570.00,0.0100
2557.00,0.0097
2544.00,0.0094
2531.00,0.0094
2518.00,0.0092
2505.00,0.0089
2492.00,0.0088
2479.00,0.0087
2466.00,0.0086
2453.00,0.0087
2440.00,0.0084
2427.00,0.0084
2414.00,0.0083
2401.00,0.0083
2388.00,0.0082
2375.00,0.0077
2362.00,0.0077
2349.00,0.0079
2336.00,0.0083
2323.00,0.0091
2310.00,0.0083
2297.00,0.0087
2284.00,0.0090
2271.00,0.0087
2258.00,0.0085
2245.00,0.0086
2232.00,0.0084
2219.00,0.0084
2206.00,0.0084
2193.00,0.0086
2180.00,0.0081
2167.00,0.0088
2154.00,0.0064
2141.00,0.0069
2128.00,0.0072
2115.00,0.0084
2102.00,0.0081
2089.00,0.0077
2076.00,0.0080
2063.00,0.0076
2050.00,0.0081
2037.00,0.0071
2024.00,0.0064
2011.00,0.0069
1998.00,0.0069
1985.00,0.0077
1972.00,0.0061
1959.00,0.0062
1946.00,0.0066
1933.00,0.0068
1920.00,0.0070
1907.00,0.0071
1894.00,0.0070
1881.00,0.0071
1868.00,0.0073
1855.00,0.0071
1842.00,0.0071
1829.00,0.0071
1816.00,0.0068
1803.00,0.0072
1790.00,0.0071
1777.00,0.0073
1764.00,0.0077
1751.00,0.0082
1738.00,0.0089
1725.00,0.0109
1712.00,0.0154
1699.00,0.0359
1686.00,0.0925
1673.00,0.1478
1660.00,0.2018
1647.00,0.2077
1634.00,0.1289
1621.00,0.0861
1608.00,0.0618
1595.00,0.0619
1582.00,0.0427
1569.00,0.0299
1556.00,0.0251
1543.00,0.0239
1530.00,0.0227
1517.00,0.0230
1504.00,0.0291
1491.00,0.0465
1478.00,0.0286
1465.00,0.0727
1452.00,0.0700
1439.00,0.1122
1426.00,0.1449
1413.00,0.0875
1400.00,0.0541
1387.00,0.0553
1374.00,0.0672
1361.00,0.0504
1348.00,0.0431
1335.00,0.0414
1322.00,0.0577
1309.00,0.0546
1296.00,0.0933
1283.00,0.1424
1270.00,0.1293
1257.00,0.0825
1244.00,0.0590
1231.00,0.0730
1218.00,0.0740
1205.00,0.0591
1192.00,0.0515
1179.00,0.0516
1166.00,0.0665
1153.00,0.0543
1140.00,0.0430
1127.00,0.0414
1114.00,0.0455
1101.00,0.0499
1088.00,0.0527
1075.00,0.0523
1062.00,0.0487
1049.00,0.0812
1036.00,0.0636
1023.00,0.0582
1010.00,0.0462
997.00,0.0413
984.00,0.0369
971.00,0.0314
958.00,0.0270
945.00,0.0253
932.00,0.0313
919.00,0.0299
906.00,0.0327
893.00,0.0339
880.00,0.0328
867.00,0.0366
854.00,0.0492
841.00,0.0607
828.00,0.0625
815.00,0.0527
802.00,0.0508
789.00,0.0495
776.00,0.0486
763.00,0.0507
750.00,0.0615
737.00,0.0720
724.00,0.0636
711.00,0.0593
698.00,0.0618
685.00,0.0679
672.00,0.0758
659.00,0.0903
646.00,0.1023
633.00,0.0888
620.00,0.0815
607.00,0.0822
594.00,0.0882
581.00,0.1035
568.00,0.1073
555.00,0.0957
542.00,0.0888
529.00,0.0879
516.00,0.0848
503.00,0.0831
490.00,0.0853
477.00,0.0877
464.00,0.0876
451.00,0.0862
438.00,0.0809
425.00,0.0770
412.00,0.0769
400.00,0.0811