File: FTIR/Olivia/2025_08_07_Polystyrene_film_scan1.csv
Created as New Dataset,Sample 012 By YargerLab Date Thursday, August 07 2025
cm-1,A
4000.00,0.0012
3987.00,0.0011
3974.00,0.0011
3961.00,0.0011
3948.00,0.0012
3935.00,0.0012
3922.00,0.0012
3909.00,0.0012
3896.00,0.0012
3883.00,0.0013
3870.00,0.0014
3857.00,0.0014
3844.00,0.0013
3831.00,0.0014
3818.00,0.0015
3805.00,0.0015
3792.00,0.0013
3779.00,0.0013
3766.00,0.0014
3753.00,0.0016
3740.00,0.0016
3727.00,0.0014
3714.00,0.0013
3701.00,0.0012
3688.00,0.0015
3675.00,0.0015
3662.00,0.0012
3649.00,0.0015
3636.00,0.0012
3623.00,0.0012
3610.00,0.0013
3597.00,0.0012
3584.00,0.0012
3571.00,0.0012
3558.00,0.0012
3545.00,0.0013
3532.00,0.0013
3519.00,0.0014
3506.00,0.0015
3493.00,0.0015
3480.00,0.0016
3467.00,0.0016
3454.00,0.0016
3441.00,0.0016
3428.00,0.0016
3415.00,0.0016
3402.00,0.0017
3389.00,0.0017
3376.00,0.0017
3363.00,0.0017
3350.00,0.0017
3337.00,0.0018
3324.00,0.0017
3311.00,0.0017
3298.00,0.0018
3285.00,0.0017
3272.00,0.0017
3259.00,0.0016
3246.00,0.0016
3233.00,0.0016
3220.00,0.0016
3207.00,0.0016
3194.00,0.0015
3181.00,0.0015
3168.00,0.0015
3155.00,0.0015
3142.00,0.0014
3129.00,0.0014
3116.00,0.0018
3103.00,0.0030
3090.00,0.0045
3077.00,0.0056
3064.00,0.0082
3051.00,0.0060
3038.00,0.0070
3025.00,0.0168
3012.00,0.0055
2999.00,0.0052
2986.00,0.0034
2973.00,0.0037
2960.00,0.0053
2947.00,0.0088
2934.00,0.0165
2921.00,0.0218
2908.00,0.0172
2895.00,0.0109
2882.00,0.0081
2869.00,0.0069
2856.00,0.0095
2843.00,0.0085
2830.00,0.0036
2817.00,0.0028
2804.00,0.0025
2791.00,0.0022
2778.00,0.0021
2765.00,0.0019
2752.00,0.0019
2739.00,0.0018
2726.00,0.0019
2713.00,0.0018
2700.00,0.0018
2687.00,0.0018
2674.00,0.0018
2661.00,0.0022
2648.00,0.0024
2635.00,0.0024
2622.00,0.0021
2609.00,0.0022
2596.00,0.0019
2583.00,0.0019
2570.00,0.0017
2557.00,0.0016
2544.00,0.0016
2531.00,0.0014
2518.00,0.0015
2505.00,0.0014
2492.00,0.0013
2479.00,0.0012
2466.00,0.0012
2453.00,0.0014
2440.00,0.0012
2427.00,0.0010
2414.00,0.0010
2401.00,0.0008
2388.00,0.0008
2375.00,0.0008
2362.00,0.0009
2349.00,0.0011
2336.00,0.0015
2323.00,0.0026
2310.00,0.0018
2297.00,0.0019
2284.00,0.0023
2271.00,0.0018
2258.00,0.0017
2245.00,0.0015
2232.00,0.0013
2219.00,0.0011
2206.00,0.0014
2193.00,0.0013
2180.00,0.0011
2167.00,0.0020
2154.00,-0.0016
2141.00,-0.0011
2128.00,-0.0004
2115.00,0.0010
2102.00,0.0008
2089.00,0.0007
2076.00,0.0011
2063.00,0.0006
2050.00,0.0018
2037.00,0.0012
2024.00,-0.0003
2011.00,0.0007
1998.00,0.0006
1985.00,0.0017
1972.00,0.0003
1959.00,0.0005
1946.00,0.0024
1933.00,0.0014
1920.00,0.0009
1907.00,0.0007
1894.00,0.0014
1881.00,0.0022
1868.00,0.0025
1855.00,0.0013
1842.00,0.0009
1829.00,0.0013
1816.00,0.0019
1803.00,0.0031
1790.00,0.0022
1777.00,0.0019
1764.00,0.0022
1751.00,0.0037
1738.00,0.0043
1725.00,0.0034
1712.00,0.0029
1699.00,0.0029
1686.00,0.0036
1673.00,0.0041
1660.00,0.0040
1647.00,0.0032
1634.00,0.0026
1621.00,0.0031
1608.00,0.0081
1595.00,0.0093
1582.00,0.0077
1569.00,0.0027
1556.00,0.0025
1543.00,0.0034
1530.00,0.0026
1517.00,0.0025
1504.00,0.0044
1491.00,0.0375
1478.00,0.0057
1465.00,0.0062
1452.00,0.0431
1439.00,0.0172
1426.00,0.0066
1413.00,0.0049
1400.00,0.0049
1387.00,0.0071
1374.00,0.0104
1361.00,0.0099
1348.00,0.0088
1335.00,0.0083
1322.00,0.0086
1309.00,0.0087
1296.00,0.0077
1283.00,0.0072
1270.00,0.0059
1257.00,0.0054
1244.00,0.0056
1231.00,0.0055
1218.00,0.0056
1205.00,0.0065
1192.00,0.0080
1179.00,0.0100
1166.00,0.0069
1153.00,0.0107
1140.00,0.0053
1127.00,0.0050
1114.00,0.0064
1101.00,0.0067
1088.00,0.0081
1075.00,0.0122
1062.00,0.0122
1049.00,0.0084
1036.00,0.0115
1023.00,0.0176
1010.00,0.0107
997.00,0.0087
984.00,0.0097
971.00,0.0095
958.00,0.0091
945.00,0.0085
932.00,0.0066
919.00,0.0075
906.00,0.0159
893.00,0.0069
880.00,0.0051
867.00,0.0045
854.00,0.0050
841.00,0.0089
828.00,0.0045
815.00,0.0044
802.00,0.0047
789.00,0.0083
776.00,0.0200
763.00,0.0504
750.00,0.0649
737.00,0.0301
724.00,0.0088
711.00,0.0193
698.00,0.1613
685.00,0.0618
672.00,0.0293
659.00,0.0188
646.00,0.0130
633.00,0.0140
620.00,0.0161
607.00,0.0128
594.00,0.0141
581.00,0.0176
568.00,0.0272
555.00,0.0382
542.00,0.0601
529.00,0.0448
516.00,0.0241
503.00,0.0172
490.00,0.0135
477.00,0.0130
464.00,0.0121
451.00,0.0113
438.00,0.0104
425.00,0.0094
412.00,0.0091
400.00,0.0091