File: FTIR/Olivia/2025_08_01_1CBN_3PVP40_mortar_dry_scan1.csv
Created as New Dataset,Sample 1023 By YargerLab Date Friday, August 01 2025
cm-1,A
4000.00,0.0076
3987.00,0.0076
3974.00,0.0076
3961.00,0.0076
3948.00,0.0076
3935.00,0.0076
3922.00,0.0076
3909.00,0.0076
3896.00,0.0076
3883.00,0.0076
3870.00,0.0076
3857.00,0.0077
3844.00,0.0075
3831.00,0.0076
3818.00,0.0075
3805.00,0.0076
3792.00,0.0075
3779.00,0.0074
3766.00,0.0074
3753.00,0.0076
3740.00,0.0075
3727.00,0.0074
3714.00,0.0076
3701.00,0.0073
3688.00,0.0076
3675.00,0.0079
3662.00,0.0081
3649.00,0.0086
3636.00,0.0091
3623.00,0.0098
3610.00,0.0108
3597.00,0.0115
3584.00,0.0128
3571.00,0.0140
3558.00,0.0154
3545.00,0.0168
3532.00,0.0180
3519.00,0.0193
3506.00,0.0203
3493.00,0.0213
3480.00,0.0225
3467.00,0.0237
3454.00,0.0250
3441.00,0.0264
3428.00,0.0283
3415.00,0.0302
3402.00,0.0314
3389.00,0.0310
3376.00,0.0296
3363.00,0.0282
3350.00,0.0271
3337.00,0.0263
3324.00,0.0260
3311.00,0.0261
3298.00,0.0264
3285.00,0.0269
3272.00,0.0273
3259.00,0.0276
3246.00,0.0275
3233.00,0.0271
3220.00,0.0264
3207.00,0.0251
3194.00,0.0235
3181.00,0.0218
3168.00,0.0201
3155.00,0.0185
3142.00,0.0171
3129.00,0.0159
3116.00,0.0150
3103.00,0.0141
3090.00,0.0135
3077.00,0.0132
3064.00,0.0127
3051.00,0.0126
3038.00,0.0125
3025.00,0.0123
3012.00,0.0121
2999.00,0.0145
2986.00,0.0185
2973.00,0.0241
2960.00,0.0301
2947.00,0.0257
2934.00,0.0332
2921.00,0.0377
2908.00,0.0278
2895.00,0.0235
2882.00,0.0217
2869.00,0.0238
2856.00,0.0298
2843.00,0.0201
2830.00,0.0149
2817.00,0.0130
2804.00,0.0122
2791.00,0.0116
2778.00,0.0111
2765.00,0.0109
2752.00,0.0108
2739.00,0.0109
2726.00,0.0111
2713.00,0.0108
2700.00,0.0106
2687.00,0.0104
2674.00,0.0103
2661.00,0.0107
2648.00,0.0108
2635.00,0.0106
2622.00,0.0102
2609.00,0.0102
2596.00,0.0102
2583.00,0.0102
2570.00,0.0099
2557.00,0.0099
2544.00,0.0097
2531.00,0.0097
2518.00,0.0094
2505.00,0.0094
2492.00,0.0093
2479.00,0.0092
2466.00,0.0092
2453.00,0.0093
2440.00,0.0091
2427.00,0.0091
2414.00,0.0090
2401.00,0.0090
2388.00,0.0088
2375.00,0.0083
2362.00,0.0084
2349.00,0.0085
2336.00,0.0089
2323.00,0.0098
2310.00,0.0090
2297.00,0.0093
2284.00,0.0100
2271.00,0.0095
2258.00,0.0094
2245.00,0.0093
2232.00,0.0092
2219.00,0.0092
2206.00,0.0094
2193.00,0.0096
2180.00,0.0091
2167.00,0.0101
2154.00,0.0068
2141.00,0.0080
2128.00,0.0080
2115.00,0.0092
2102.00,0.0088
2089.00,0.0088
2076.00,0.0090
2063.00,0.0085
2050.00,0.0091
2037.00,0.0082
2024.00,0.0077
2011.00,0.0076
1998.00,0.0078
1985.00,0.0085
1972.00,0.0073
1959.00,0.0067
1946.00,0.0076
1933.00,0.0075
1920.00,0.0076
1907.00,0.0085
1894.00,0.0081
1881.00,0.0078
1868.00,0.0077
1855.00,0.0079
1842.00,0.0079
1829.00,0.0077
1816.00,0.0077
1803.00,0.0080
1790.00,0.0080
1777.00,0.0083
1764.00,0.0084
1751.00,0.0086
1738.00,0.0090
1725.00,0.0103
1712.00,0.0121
1699.00,0.0166
1686.00,0.0322
1673.00,0.0562
1660.00,0.0789
1647.00,0.0882
1634.00,0.0788
1621.00,0.0801
1608.00,0.0565
1595.00,0.0347
1582.00,0.0435
1569.00,0.0300
1556.00,0.0198
1543.00,0.0178
1530.00,0.0165
1517.00,0.0174
1504.00,0.0232
1491.00,0.0339
1478.00,0.0209
1465.00,0.0496
1452.00,0.0415
1439.00,0.0627
1426.00,0.0706
1413.00,0.0477
1400.00,0.0481
1387.00,0.0375
1374.00,0.0368
1361.00,0.0407
1348.00,0.0335
1335.00,0.0289
1322.00,0.0368
1309.00,0.0341
1296.00,0.0609
1283.00,0.0789
1270.00,0.0645
1257.00,0.0418
1244.00,0.0423
1231.00,0.0523
1218.00,0.0454
1205.00,0.0379
1192.00,0.0480
1179.00,0.0323
1166.00,0.0320
1153.00,0.0450
1140.00,0.0268
1127.00,0.0502
1114.00,0.0323
1101.00,0.0384
1088.00,0.0273
1075.00,0.0275
1062.00,0.0339
1049.00,0.0615
1036.00,0.0385
1023.00,0.0517
1010.00,0.0315
997.00,0.0354
984.00,0.0262
971.00,0.0244
958.00,0.0232
945.00,0.0221
932.00,0.0269
919.00,0.0256
906.00,0.0220
893.00,0.0266
880.00,0.0238
867.00,0.0409
854.00,0.0364
841.00,0.0380
828.00,0.0373
815.00,0.0523
802.00,0.0290
789.00,0.0288
776.00,0.0326
763.00,0.0343
750.00,0.0390
737.00,0.0504
724.00,0.0482
711.00,0.0476
698.00,0.0500
685.00,0.0534
672.00,0.0599
659.00,0.0655
646.00,0.0682
633.00,0.0648
620.00,0.0672
607.00,0.0668
594.00,0.0738
581.00,0.0778
568.00,0.0788
555.00,0.0795
542.00,0.0802
529.00,0.0810
516.00,0.0741
503.00,0.0747
490.00,0.0753
477.00,0.0733
464.00,0.0717
451.00,0.0700
438.00,0.0668
425.00,0.0632
412.00,0.0621
400.00,0.0589