File: FTIR/Olivia/2025_08_01_1CBN_3PVP40_mortar_dry_scan3.csv
Created as New Dataset,Sample 1025 By YargerLab Date Friday, August 01 2025
cm-1,A
4000.00,0.0072
3987.00,0.0072
3974.00,0.0073
3961.00,0.0072
3948.00,0.0072
3935.00,0.0071
3922.00,0.0072
3909.00,0.0071
3896.00,0.0071
3883.00,0.0071
3870.00,0.0070
3857.00,0.0070
3844.00,0.0071
3831.00,0.0070
3818.00,0.0069
3805.00,0.0070
3792.00,0.0070
3779.00,0.0070
3766.00,0.0069
3753.00,0.0070
3740.00,0.0069
3727.00,0.0069
3714.00,0.0069
3701.00,0.0068
3688.00,0.0069
3675.00,0.0069
3662.00,0.0072
3649.00,0.0073
3636.00,0.0076
3623.00,0.0080
3610.00,0.0086
3597.00,0.0090
3584.00,0.0097
3571.00,0.0105
3558.00,0.0114
3545.00,0.0123
3532.00,0.0132
3519.00,0.0143
3506.00,0.0152
3493.00,0.0162
3480.00,0.0177
3467.00,0.0196
3454.00,0.0216
3441.00,0.0240
3428.00,0.0272
3415.00,0.0308
3402.00,0.0330
3389.00,0.0321
3376.00,0.0298
3363.00,0.0277
3350.00,0.0262
3337.00,0.0255
3324.00,0.0255
3311.00,0.0260
3298.00,0.0270
3285.00,0.0283
3272.00,0.0295
3259.00,0.0307
3246.00,0.0315
3233.00,0.0317
3220.00,0.0310
3207.00,0.0293
3194.00,0.0270
3181.00,0.0246
3168.00,0.0221
3155.00,0.0197
3142.00,0.0178
3129.00,0.0162
3116.00,0.0151
3103.00,0.0137
3090.00,0.0135
3077.00,0.0133
3064.00,0.0128
3051.00,0.0129
3038.00,0.0131
3025.00,0.0129
3012.00,0.0122
2999.00,0.0153
2986.00,0.0213
2973.00,0.0306
2960.00,0.0401
2947.00,0.0315
2934.00,0.0479
2921.00,0.0548
2908.00,0.0359
2895.00,0.0276
2882.00,0.0245
2869.00,0.0297
2856.00,0.0424
2843.00,0.0247
2830.00,0.0161
2817.00,0.0133
2804.00,0.0122
2791.00,0.0113
2778.00,0.0107
2765.00,0.0104
2752.00,0.0105
2739.00,0.0108
2726.00,0.0111
2713.00,0.0106
2700.00,0.0104
2687.00,0.0101
2674.00,0.0100
2661.00,0.0105
2648.00,0.0106
2635.00,0.0103
2622.00,0.0097
2609.00,0.0097
2596.00,0.0098
2583.00,0.0099
2570.00,0.0096
2557.00,0.0094
2544.00,0.0092
2531.00,0.0092
2518.00,0.0089
2505.00,0.0087
2492.00,0.0085
2479.00,0.0084
2466.00,0.0083
2453.00,0.0085
2440.00,0.0082
2427.00,0.0080
2414.00,0.0080
2401.00,0.0080
2388.00,0.0078
2375.00,0.0074
2362.00,0.0074
2349.00,0.0075
2336.00,0.0078
2323.00,0.0086
2310.00,0.0078
2297.00,0.0082
2284.00,0.0087
2271.00,0.0081
2258.00,0.0078
2245.00,0.0077
2232.00,0.0079
2219.00,0.0078
2206.00,0.0080
2193.00,0.0077
2180.00,0.0076
2167.00,0.0083
2154.00,0.0056
2141.00,0.0061
2128.00,0.0064
2115.00,0.0075
2102.00,0.0072
2089.00,0.0071
2076.00,0.0073
2063.00,0.0069
2050.00,0.0073
2037.00,0.0070
2024.00,0.0064
2011.00,0.0059
1998.00,0.0063
1985.00,0.0068
1972.00,0.0057
1959.00,0.0054
1946.00,0.0062
1933.00,0.0061
1920.00,0.0065
1907.00,0.0080
1894.00,0.0073
1881.00,0.0067
1868.00,0.0066
1855.00,0.0069
1842.00,0.0069
1829.00,0.0066
1816.00,0.0067
1803.00,0.0070
1790.00,0.0070
1777.00,0.0074
1764.00,0.0074
1751.00,0.0076
1738.00,0.0077
1725.00,0.0094
1712.00,0.0111
1699.00,0.0145
1686.00,0.0260
1673.00,0.0418
1660.00,0.0558
1647.00,0.0594
1634.00,0.0545
1621.00,0.0853
1608.00,0.0600
1595.00,0.0327
1582.00,0.0569
1569.00,0.0346
1556.00,0.0182
1543.00,0.0155
1530.00,0.0143
1517.00,0.0170
1504.00,0.0231
1491.00,0.0344
1478.00,0.0196
1465.00,0.0488
1452.00,0.0420
1439.00,0.0617
1426.00,0.0724
1413.00,0.0506
1400.00,0.0670
1387.00,0.0466
1374.00,0.0394
1361.00,0.0534
1348.00,0.0412
1335.00,0.0318
1322.00,0.0363
1309.00,0.0343
1296.00,0.0596
1283.00,0.0740
1270.00,0.0529
1257.00,0.0353
1244.00,0.0441
1231.00,0.0582
1218.00,0.0456
1205.00,0.0368
1192.00,0.0588
1179.00,0.0297
1166.00,0.0286
1153.00,0.0577
1140.00,0.0258
1127.00,0.0682
1114.00,0.0338
1101.00,0.0450
1088.00,0.0243
1075.00,0.0243
1062.00,0.0384
1049.00,0.0895
1036.00,0.0456
1023.00,0.0659
1010.00,0.0313
997.00,0.0375
984.00,0.0241
971.00,0.0222
958.00,0.0206
945.00,0.0189
932.00,0.0254
919.00,0.0250
906.00,0.0187
893.00,0.0249
880.00,0.0218
867.00,0.0506
854.00,0.0390
841.00,0.0376
828.00,0.0387
815.00,0.0652
802.00,0.0235
789.00,0.0223
776.00,0.0270
763.00,0.0269
750.00,0.0300
737.00,0.0450
724.00,0.0406
711.00,0.0399
698.00,0.0430
685.00,0.0453
672.00,0.0531
659.00,0.0558
646.00,0.0535
633.00,0.0505
620.00,0.0554
607.00,0.0549
594.00,0.0642
581.00,0.0654
568.00,0.0634
555.00,0.0661
542.00,0.0684
529.00,0.0688
516.00,0.0574
503.00,0.0581
490.00,0.0582
477.00,0.0549
464.00,0.0530
451.00,0.0527
438.00,0.0502
425.00,0.0467
412.00,0.0474
400.00,0.0462