File: FTIR/Olivia/2025_08_06_1CBN_3PVP10_MP_Powder_Sigma2.csv
Created as New Dataset,Sample 006 By YargerLab Date Wednesday, August 06 2025
cm-1,A
4000.00,0.0008
3987.00,0.0008
3974.00,0.0008
3961.00,0.0007
3948.00,0.0008
3935.00,0.0007
3922.00,0.0007
3909.00,0.0008
3896.00,0.0007
3883.00,0.0006
3870.00,0.0006
3857.00,0.0006
3844.00,0.0007
3831.00,0.0007
3818.00,0.0006
3805.00,0.0007
3792.00,0.0008
3779.00,0.0008
3766.00,0.0007
3753.00,0.0006
3740.00,0.0006
3727.00,0.0007
3714.00,0.0007
3701.00,0.0008
3688.00,0.0008
3675.00,0.0010
3662.00,0.0013
3649.00,0.0015
3636.00,0.0021
3623.00,0.0027
3610.00,0.0033
3597.00,0.0041
3584.00,0.0049
3571.00,0.0062
3558.00,0.0073
3545.00,0.0083
3532.00,0.0093
3519.00,0.0101
3506.00,0.0109
3493.00,0.0115
3480.00,0.0119
3467.00,0.0126
3454.00,0.0130
3441.00,0.0134
3428.00,0.0138
3415.00,0.0141
3402.00,0.0145
3389.00,0.0145
3376.00,0.0140
3363.00,0.0132
3350.00,0.0125
3337.00,0.0119
3324.00,0.0115
3311.00,0.0111
3298.00,0.0110
3285.00,0.0109
3272.00,0.0106
3259.00,0.0105
3246.00,0.0101
3233.00,0.0097
3220.00,0.0093
3207.00,0.0088
3194.00,0.0081
3181.00,0.0075
3168.00,0.0068
3155.00,0.0062
3142.00,0.0056
3129.00,0.0051
3116.00,0.0047
3103.00,0.0043
3090.00,0.0040
3077.00,0.0037
3064.00,0.0035
3051.00,0.0033
3038.00,0.0031
3025.00,0.0031
3012.00,0.0034
2999.00,0.0052
2986.00,0.0071
2973.00,0.0096
2960.00,0.0110
2947.00,0.0108
2934.00,0.0118
2921.00,0.0118
2908.00,0.0098
2895.00,0.0091
2882.00,0.0089
2869.00,0.0087
2856.00,0.0087
2843.00,0.0058
2830.00,0.0042
2817.00,0.0033
2804.00,0.0028
2791.00,0.0026
2778.00,0.0024
2765.00,0.0022
2752.00,0.0022
2739.00,0.0023
2726.00,0.0022
2713.00,0.0021
2700.00,0.0021
2687.00,0.0019
2674.00,0.0019
2661.00,0.0023
2648.00,0.0024
2635.00,0.0023
2622.00,0.0022
2609.00,0.0021
2596.00,0.0020
2583.00,0.0019
2570.00,0.0019
2557.00,0.0017
2544.00,0.0016
2531.00,0.0015
2518.00,0.0015
2505.00,0.0014
2492.00,0.0014
2479.00,0.0013
2466.00,0.0013
2453.00,0.0014
2440.00,0.0013
2427.00,0.0012
2414.00,0.0012
2401.00,0.0011
2388.00,0.0010
2375.00,0.0010
2362.00,0.0010
2349.00,0.0012
2336.00,0.0015
2323.00,0.0025
2310.00,0.0017
2297.00,0.0021
2284.00,0.0024
2271.00,0.0021
2258.00,0.0018
2245.00,0.0020
2232.00,0.0016
2219.00,0.0019
2206.00,0.0018
2193.00,0.0022
2180.00,0.0017
2167.00,0.0028
2154.00,-0.0003
2141.00,0.0003
2128.00,0.0006
2115.00,0.0019
2102.00,0.0015
2089.00,0.0015
2076.00,0.0016
2063.00,0.0014
2050.00,0.0024
2037.00,0.0015
2024.00,0.0006
2011.00,0.0009
1998.00,0.0008
1985.00,0.0015
1972.00,-0.0001
1959.00,-0.0005
1946.00,0.0002
1933.00,0.0002
1920.00,0.0005
1907.00,0.0007
1894.00,0.0007
1881.00,0.0007
1868.00,0.0006
1855.00,0.0008
1842.00,0.0007
1829.00,0.0006
1816.00,0.0005
1803.00,0.0008
1790.00,0.0009
1777.00,0.0010
1764.00,0.0012
1751.00,0.0012
1738.00,0.0015
1725.00,0.0023
1712.00,0.0036
1699.00,0.0082
1686.00,0.0253
1673.00,0.0469
1660.00,0.0676
1647.00,0.0773
1634.00,0.0578
1621.00,0.0430
1608.00,0.0279
1595.00,0.0160
1582.00,0.0152
1569.00,0.0105
1556.00,0.0071
1543.00,0.0059
1530.00,0.0055
1517.00,0.0061
1504.00,0.0101
1491.00,0.0171
1478.00,0.0096
1465.00,0.0285
1452.00,0.0235
1439.00,0.0395
1426.00,0.0448
1413.00,0.0280
1400.00,0.0181
1387.00,0.0154
1374.00,0.0191
1361.00,0.0173
1348.00,0.0130
1335.00,0.0123
1322.00,0.0188
1309.00,0.0188
1296.00,0.0353
1283.00,0.0546
1270.00,0.0477
1257.00,0.0271
1244.00,0.0232
1231.00,0.0269
1218.00,0.0263
1205.00,0.0212
1192.00,0.0208
1179.00,0.0166
1166.00,0.0178
1153.00,0.0183
1140.00,0.0123
1127.00,0.0171
1114.00,0.0132
1101.00,0.0152
1088.00,0.0118
1075.00,0.0125
1062.00,0.0148
1049.00,0.0203
1036.00,0.0153
1023.00,0.0193
1010.00,0.0141
997.00,0.0143
984.00,0.0105
971.00,0.0093
958.00,0.0091
945.00,0.0079
932.00,0.0116
919.00,0.0100
906.00,0.0099
893.00,0.0113
880.00,0.0101
867.00,0.0142
854.00,0.0166
841.00,0.0186
828.00,0.0158
815.00,0.0196
802.00,0.0123
789.00,0.0129
776.00,0.0154
763.00,0.0177
750.00,0.0213
737.00,0.0280
724.00,0.0261
711.00,0.0253
698.00,0.0269
685.00,0.0294
672.00,0.0342
659.00,0.0393
646.00,0.0438
633.00,0.0408
620.00,0.0413
607.00,0.0411
594.00,0.0446
581.00,0.0487
568.00,0.0509
555.00,0.0496
542.00,0.0490
529.00,0.0490
516.00,0.0464
503.00,0.0467
490.00,0.0475
477.00,0.0482
464.00,0.0485
451.00,0.0463
438.00,0.0440
425.00,0.0416
412.00,0.0405
400.00,0.0402