File: FTIR/Olivia/2025_08_04_1CBN_3PVP10kDa_MC_powder_scan3.csv
Created as New Dataset,Sample 1044 By YargerLab Date Monday, August 04 2025
cm-1,A
4000.00,0.0069
3987.00,0.0069
3974.00,0.0068
3961.00,0.0069
3948.00,0.0069
3935.00,0.0069
3922.00,0.0069
3909.00,0.0070
3896.00,0.0069
3883.00,0.0069
3870.00,0.0068
3857.00,0.0069
3844.00,0.0069
3831.00,0.0069
3818.00,0.0069
3805.00,0.0070
3792.00,0.0069
3779.00,0.0069
3766.00,0.0068
3753.00,0.0069
3740.00,0.0068
3727.00,0.0068
3714.00,0.0068
3701.00,0.0067
3688.00,0.0068
3675.00,0.0069
3662.00,0.0070
3649.00,0.0072
3636.00,0.0075
3623.00,0.0079
3610.00,0.0085
3597.00,0.0090
3584.00,0.0098
3571.00,0.0107
3558.00,0.0117
3545.00,0.0126
3532.00,0.0134
3519.00,0.0141
3506.00,0.0147
3493.00,0.0153
3480.00,0.0159
3467.00,0.0168
3454.00,0.0176
3441.00,0.0185
3428.00,0.0196
3415.00,0.0209
3402.00,0.0215
3389.00,0.0212
3376.00,0.0202
3363.00,0.0194
3350.00,0.0187
3337.00,0.0183
3324.00,0.0182
3311.00,0.0182
3298.00,0.0185
3285.00,0.0189
3272.00,0.0189
3259.00,0.0192
3246.00,0.0192
3233.00,0.0189
3220.00,0.0184
3207.00,0.0176
3194.00,0.0165
3181.00,0.0155
3168.00,0.0146
3155.00,0.0135
3142.00,0.0126
3129.00,0.0120
3116.00,0.0114
3103.00,0.0109
3090.00,0.0107
3077.00,0.0106
3064.00,0.0103
3051.00,0.0103
3038.00,0.0104
3025.00,0.0102
3012.00,0.0101
2999.00,0.0120
2986.00,0.0158
2973.00,0.0203
2960.00,0.0247
2947.00,0.0222
2934.00,0.0284
2921.00,0.0292
2908.00,0.0220
2895.00,0.0191
2882.00,0.0182
2869.00,0.0203
2856.00,0.0238
2843.00,0.0160
2830.00,0.0126
2817.00,0.0110
2804.00,0.0103
2791.00,0.0099
2778.00,0.0096
2765.00,0.0094
2752.00,0.0093
2739.00,0.0094
2726.00,0.0095
2713.00,0.0093
2700.00,0.0091
2687.00,0.0090
2674.00,0.0089
2661.00,0.0093
2648.00,0.0094
2635.00,0.0093
2622.00,0.0091
2609.00,0.0090
2596.00,0.0090
2583.00,0.0090
2570.00,0.0089
2557.00,0.0087
2544.00,0.0086
2531.00,0.0085
2518.00,0.0083
2505.00,0.0082
2492.00,0.0082
2479.00,0.0080
2466.00,0.0081
2453.00,0.0082
2440.00,0.0081
2427.00,0.0079
2414.00,0.0079
2401.00,0.0078
2388.00,0.0076
2375.00,0.0073
2362.00,0.0072
2349.00,0.0073
2336.00,0.0075
2323.00,0.0084
2310.00,0.0075
2297.00,0.0081
2284.00,0.0088
2271.00,0.0082
2258.00,0.0082
2245.00,0.0081
2232.00,0.0081
2219.00,0.0080
2206.00,0.0080
2193.00,0.0082
2180.00,0.0078
2167.00,0.0087
2154.00,0.0058
2141.00,0.0066
2128.00,0.0067
2115.00,0.0079
2102.00,0.0077
2089.00,0.0075
2076.00,0.0077
2063.00,0.0075
2050.00,0.0084
2037.00,0.0075
2024.00,0.0067
2011.00,0.0066
1998.00,0.0070
1985.00,0.0071
1972.00,0.0064
1959.00,0.0058
1946.00,0.0065
1933.00,0.0063
1920.00,0.0067
1907.00,0.0072
1894.00,0.0072
1881.00,0.0068
1868.00,0.0070
1855.00,0.0069
1842.00,0.0069
1829.00,0.0069
1816.00,0.0066
1803.00,0.0068
1790.00,0.0068
1777.00,0.0070
1764.00,0.0070
1751.00,0.0072
1738.00,0.0073
1725.00,0.0082
1712.00,0.0098
1699.00,0.0165
1686.00,0.0375
1673.00,0.0638
1660.00,0.0828
1647.00,0.0815
1634.00,0.0590
1621.00,0.0596
1608.00,0.0417
1595.00,0.0263
1582.00,0.0344
1569.00,0.0232
1556.00,0.0160
1543.00,0.0144
1530.00,0.0136
1517.00,0.0148
1504.00,0.0192
1491.00,0.0275
1478.00,0.0175
1465.00,0.0390
1452.00,0.0346
1439.00,0.0510
1426.00,0.0621
1413.00,0.0443
1400.00,0.0410
1387.00,0.0310
1374.00,0.0317
1361.00,0.0351
1348.00,0.0266
1335.00,0.0233
1322.00,0.0293
1309.00,0.0287
1296.00,0.0470
1283.00,0.0689
1270.00,0.0596
1257.00,0.0387
1244.00,0.0366
1231.00,0.0441
1218.00,0.0393
1205.00,0.0327
1192.00,0.0391
1179.00,0.0272
1166.00,0.0282
1153.00,0.0377
1140.00,0.0231
1127.00,0.0390
1114.00,0.0250
1101.00,0.0295
1088.00,0.0215
1075.00,0.0219
1062.00,0.0285
1049.00,0.0476
1036.00,0.0291
1023.00,0.0370
1010.00,0.0244
997.00,0.0264
984.00,0.0204
971.00,0.0191
958.00,0.0181
945.00,0.0173
932.00,0.0219
919.00,0.0206
906.00,0.0185
893.00,0.0216
880.00,0.0194
867.00,0.0308
854.00,0.0289
841.00,0.0302
828.00,0.0281
815.00,0.0375
802.00,0.0201
789.00,0.0200
776.00,0.0225
763.00,0.0236
750.00,0.0274
737.00,0.0364
724.00,0.0327
711.00,0.0314
698.00,0.0334
685.00,0.0363
672.00,0.0420
659.00,0.0480
646.00,0.0517
633.00,0.0474
620.00,0.0480
607.00,0.0483
594.00,0.0536
581.00,0.0591
568.00,0.0603
555.00,0.0588
542.00,0.0578
529.00,0.0576
516.00,0.0532
503.00,0.0540
490.00,0.0538
477.00,0.0533
464.00,0.0528
451.00,0.0519
438.00,0.0499
425.00,0.0479
412.00,0.0468
400.00,0.0480