File: FTIR/Olivia/2025_08_01_1CBN_3PVP90_mortar_dry_scan1.csv
Created as New Dataset,Sample 1026 By YargerLab Date Friday, August 01 2025
cm-1,A
4000.00,0.0043
3987.00,0.0043
3974.00,0.0043
3961.00,0.0043
3948.00,0.0043
3935.00,0.0043
3922.00,0.0042
3909.00,0.0042
3896.00,0.0043
3883.00,0.0043
3870.00,0.0042
3857.00,0.0042
3844.00,0.0043
3831.00,0.0043
3818.00,0.0043
3805.00,0.0042
3792.00,0.0042
3779.00,0.0042
3766.00,0.0043
3753.00,0.0043
3740.00,0.0042
3727.00,0.0041
3714.00,0.0040
3701.00,0.0039
3688.00,0.0041
3675.00,0.0042
3662.00,0.0044
3649.00,0.0045
3636.00,0.0048
3623.00,0.0050
3610.00,0.0056
3597.00,0.0059
3584.00,0.0063
3571.00,0.0069
3558.00,0.0076
3545.00,0.0083
3532.00,0.0090
3519.00,0.0098
3506.00,0.0105
3493.00,0.0113
3480.00,0.0124
3467.00,0.0138
3454.00,0.0153
3441.00,0.0171
3428.00,0.0194
3415.00,0.0222
3402.00,0.0240
3389.00,0.0236
3376.00,0.0221
3363.00,0.0205
3350.00,0.0192
3337.00,0.0187
3324.00,0.0186
3311.00,0.0189
3298.00,0.0196
3285.00,0.0206
3272.00,0.0215
3259.00,0.0226
3246.00,0.0235
3233.00,0.0237
3220.00,0.0235
3207.00,0.0224
3194.00,0.0208
3181.00,0.0191
3168.00,0.0173
3155.00,0.0152
3142.00,0.0137
3129.00,0.0124
3116.00,0.0114
3103.00,0.0102
3090.00,0.0100
3077.00,0.0097
3064.00,0.0093
3051.00,0.0094
3038.00,0.0095
3025.00,0.0092
3012.00,0.0088
2999.00,0.0117
2986.00,0.0163
2973.00,0.0240
2960.00,0.0310
2947.00,0.0246
2934.00,0.0390
2921.00,0.0443
2908.00,0.0287
2895.00,0.0218
2882.00,0.0192
2869.00,0.0232
2856.00,0.0345
2843.00,0.0192
2830.00,0.0120
2817.00,0.0097
2804.00,0.0088
2791.00,0.0079
2778.00,0.0074
2765.00,0.0072
2752.00,0.0072
2739.00,0.0074
2726.00,0.0078
2713.00,0.0074
2700.00,0.0071
2687.00,0.0069
2674.00,0.0068
2661.00,0.0073
2648.00,0.0075
2635.00,0.0072
2622.00,0.0068
2609.00,0.0067
2596.00,0.0069
2583.00,0.0068
2570.00,0.0066
2557.00,0.0063
2544.00,0.0062
2531.00,0.0060
2518.00,0.0058
2505.00,0.0057
2492.00,0.0056
2479.00,0.0054
2466.00,0.0053
2453.00,0.0055
2440.00,0.0052
2427.00,0.0051
2414.00,0.0050
2401.00,0.0050
2388.00,0.0048
2375.00,0.0042
2362.00,0.0041
2349.00,0.0042
2336.00,0.0046
2323.00,0.0058
2310.00,0.0048
2297.00,0.0053
2284.00,0.0060
2271.00,0.0054
2258.00,0.0048
2245.00,0.0048
2232.00,0.0048
2219.00,0.0049
2206.00,0.0049
2193.00,0.0051
2180.00,0.0047
2167.00,0.0059
2154.00,0.0023
2141.00,0.0035
2128.00,0.0035
2115.00,0.0045
2102.00,0.0042
2089.00,0.0042
2076.00,0.0046
2063.00,0.0042
2050.00,0.0043
2037.00,0.0039
2024.00,0.0034
2011.00,0.0032
1998.00,0.0035
1985.00,0.0042
1972.00,0.0028
1959.00,0.0029
1946.00,0.0034
1933.00,0.0035
1920.00,0.0040
1907.00,0.0051
1894.00,0.0045
1881.00,0.0041
1868.00,0.0041
1855.00,0.0043
1842.00,0.0043
1829.00,0.0042
1816.00,0.0041
1803.00,0.0046
1790.00,0.0045
1777.00,0.0050
1764.00,0.0050
1751.00,0.0052
1738.00,0.0053
1725.00,0.0065
1712.00,0.0077
1699.00,0.0106
1686.00,0.0225
1673.00,0.0349
1660.00,0.0461
1647.00,0.0491
1634.00,0.0455
1621.00,0.0759
1608.00,0.0543
1595.00,0.0286
1582.00,0.0506
1569.00,0.0303
1556.00,0.0146
1543.00,0.0125
1530.00,0.0113
1517.00,0.0143
1504.00,0.0194
1491.00,0.0292
1478.00,0.0160
1465.00,0.0431
1452.00,0.0368
1439.00,0.0543
1426.00,0.0648
1413.00,0.0442
1400.00,0.0606
1387.00,0.0415
1374.00,0.0346
1361.00,0.0487
1348.00,0.0366
1335.00,0.0280
1322.00,0.0314
1309.00,0.0297
1296.00,0.0534
1283.00,0.0664
1270.00,0.0448
1257.00,0.0291
1244.00,0.0381
1231.00,0.0510
1218.00,0.0394
1205.00,0.0311
1192.00,0.0513
1179.00,0.0241
1166.00,0.0224
1153.00,0.0475
1140.00,0.0203
1127.00,0.0578
1114.00,0.0270
1101.00,0.0374
1088.00,0.0185
1075.00,0.0187
1062.00,0.0322
1049.00,0.0786
1036.00,0.0398
1023.00,0.0578
1010.00,0.0264
997.00,0.0315
984.00,0.0189
971.00,0.0175
958.00,0.0154
945.00,0.0136
932.00,0.0204
919.00,0.0201
906.00,0.0152
893.00,0.0212
880.00,0.0184
867.00,0.0460
854.00,0.0357
841.00,0.0341
828.00,0.0353
815.00,0.0639
802.00,0.0204
789.00,0.0193
776.00,0.0246
763.00,0.0246
750.00,0.0273
737.00,0.0437
724.00,0.0386
711.00,0.0387
698.00,0.0419
685.00,0.0440
672.00,0.0527
659.00,0.0550
646.00,0.0521
633.00,0.0494
620.00,0.0559
607.00,0.0554
594.00,0.0658
581.00,0.0663
568.00,0.0636
555.00,0.0664
542.00,0.0688
529.00,0.0695
516.00,0.0556
503.00,0.0559
490.00,0.0550
477.00,0.0510
464.00,0.0494
451.00,0.0488
438.00,0.0492
425.00,0.0481
412.00,0.0520
400.00,0.0484