File: FTIR/Olivia/2025_07_21_Polystyrene_Std_scan2.csv
Created as New Dataset,Sample 841 By YargerLab Date Monday, July 21 2025
cm-1,A
4000.00,0.0008
3987.00,0.0008
3974.00,0.0008
3961.00,0.0007
3948.00,0.0007
3935.00,0.0007
3922.00,0.0007
3909.00,0.0007
3896.00,0.0007
3883.00,0.0007
3870.00,0.0006
3857.00,0.0008
3844.00,0.0007
3831.00,0.0007
3818.00,0.0006
3805.00,0.0008
3792.00,0.0007
3779.00,0.0008
3766.00,0.0008
3753.00,0.0008
3740.00,0.0007
3727.00,0.0007
3714.00,0.0006
3701.00,0.0007
3688.00,0.0006
3675.00,0.0005
3662.00,0.0007
3649.00,0.0006
3636.00,0.0006
3623.00,0.0007
3610.00,0.0008
3597.00,0.0007
3584.00,0.0008
3571.00,0.0009
3558.00,0.0009
3545.00,0.0009
3532.00,0.0010
3519.00,0.0010
3506.00,0.0011
3493.00,0.0012
3480.00,0.0012
3467.00,0.0013
3454.00,0.0012
3441.00,0.0013
3428.00,0.0013
3415.00,0.0012
3402.00,0.0012
3389.00,0.0012
3376.00,0.0013
3363.00,0.0013
3350.00,0.0012
3337.00,0.0013
3324.00,0.0013
3311.00,0.0013
3298.00,0.0013
3285.00,0.0012
3272.00,0.0012
3259.00,0.0012
3246.00,0.0012
3233.00,0.0011
3220.00,0.0011
3207.00,0.0012
3194.00,0.0011
3181.00,0.0011
3168.00,0.0012
3155.00,0.0012
3142.00,0.0011
3129.00,0.0012
3116.00,0.0014
3103.00,0.0029
3090.00,0.0039
3077.00,0.0058
3064.00,0.0082
3051.00,0.0062
3038.00,0.0066
3025.00,0.0186
3012.00,0.0051
2999.00,0.0046
2986.00,0.0021
2973.00,0.0023
2960.00,0.0039
2947.00,0.0076
2934.00,0.0159
2921.00,0.0224
2908.00,0.0169
2895.00,0.0098
2882.00,0.0067
2869.00,0.0054
2856.00,0.0084
2843.00,0.0081
2830.00,0.0027
2817.00,0.0021
2804.00,0.0019
2791.00,0.0017
2778.00,0.0016
2765.00,0.0014
2752.00,0.0014
2739.00,0.0014
2726.00,0.0015
2713.00,0.0014
2700.00,0.0014
2687.00,0.0014
2674.00,0.0014
2661.00,0.0018
2648.00,0.0019
2635.00,0.0019
2622.00,0.0018
2609.00,0.0017
2596.00,0.0016
2583.00,0.0015
2570.00,0.0013
2557.00,0.0013
2544.00,0.0013
2531.00,0.0012
2518.00,0.0011
2505.00,0.0011
2492.00,0.0011
2479.00,0.0010
2466.00,0.0010
2453.00,0.0012
2440.00,0.0009
2427.00,0.0008
2414.00,0.0008
2401.00,0.0007
2388.00,0.0006
2375.00,0.0005
2362.00,0.0005
2349.00,0.0008
2336.00,0.0012
2323.00,0.0022
2310.00,0.0016
2297.00,0.0017
2284.00,0.0020
2271.00,0.0015
2258.00,0.0013
2245.00,0.0012
2232.00,0.0011
2219.00,0.0010
2206.00,0.0010
2193.00,0.0009
2180.00,0.0008
2167.00,0.0016
2154.00,-0.0016
2141.00,-0.0010
2128.00,-0.0005
2115.00,0.0006
2102.00,0.0008
2089.00,0.0005
2076.00,0.0008
2063.00,0.0007
2050.00,0.0012
2037.00,0.0006
2024.00,0.0002
2011.00,0.0003
1998.00,0.0004
1985.00,0.0014
1972.00,-0.0002
1959.00,0.0004
1946.00,0.0023
1933.00,0.0014
1920.00,0.0006
1907.00,0.0005
1894.00,0.0012
1881.00,0.0021
1868.00,0.0026
1855.00,0.0012
1842.00,0.0007
1829.00,0.0012
1816.00,0.0018
1803.00,0.0031
1790.00,0.0020
1777.00,0.0018
1764.00,0.0022
1751.00,0.0034
1738.00,0.0038
1725.00,0.0032
1712.00,0.0028
1699.00,0.0026
1686.00,0.0032
1673.00,0.0035
1660.00,0.0034
1647.00,0.0028
1634.00,0.0025
1621.00,0.0028
1608.00,0.0077
1595.00,0.0102
1582.00,0.0081
1569.00,0.0025
1556.00,0.0025
1543.00,0.0035
1530.00,0.0026
1517.00,0.0024
1504.00,0.0045
1491.00,0.0449
1478.00,0.0060
1465.00,0.0061
1452.00,0.0491
1439.00,0.0185
1426.00,0.0059
1413.00,0.0044
1400.00,0.0043
1387.00,0.0069
1374.00,0.0110
1361.00,0.0103
1348.00,0.0093
1335.00,0.0084
1322.00,0.0090
1309.00,0.0092
1296.00,0.0076
1283.00,0.0070
1270.00,0.0056
1257.00,0.0050
1244.00,0.0053
1231.00,0.0052
1218.00,0.0055
1205.00,0.0069
1192.00,0.0084
1179.00,0.0107
1166.00,0.0067
1153.00,0.0110
1140.00,0.0050
1127.00,0.0049
1114.00,0.0066
1101.00,0.0067
1088.00,0.0082
1075.00,0.0130
1062.00,0.0127
1049.00,0.0088
1036.00,0.0121
1023.00,0.0203
1010.00,0.0112
997.00,0.0091
984.00,0.0103
971.00,0.0100
958.00,0.0096
945.00,0.0094
932.00,0.0071
919.00,0.0084
906.00,0.0190
893.00,0.0073
880.00,0.0053
867.00,0.0047
854.00,0.0052
841.00,0.0099
828.00,0.0047
815.00,0.0046
802.00,0.0053
789.00,0.0098
776.00,0.0241
763.00,0.0627
750.00,0.0809
737.00,0.0345
724.00,0.0097
711.00,0.0219
698.00,0.2178
685.00,0.0815
672.00,0.0364
659.00,0.0217
646.00,0.0137
633.00,0.0152
620.00,0.0181
607.00,0.0142
594.00,0.0158
581.00,0.0202
568.00,0.0338
555.00,0.0489
542.00,0.0768
529.00,0.0558
516.00,0.0279
503.00,0.0188
490.00,0.0149
477.00,0.0129
464.00,0.0116
451.00,0.0107
438.00,0.0092
425.00,0.0104
412.00,0.0086
400.00,0.0086