File: FTIR/Olivia/2025_07_26_Polystyrene_Std_scan3.csv
Created as New Dataset,Sample 919 By YargerLab Date Saturday, July 26 2025
cm-1,A
4000.00,0.0007
3987.00,0.0007
3974.00,0.0007
3961.00,0.0007
3948.00,0.0007
3935.00,0.0007
3922.00,0.0007
3909.00,0.0007
3896.00,0.0006
3883.00,0.0006
3870.00,0.0006
3857.00,0.0007
3844.00,0.0006
3831.00,0.0006
3818.00,0.0007
3805.00,0.0007
3792.00,0.0007
3779.00,0.0008
3766.00,0.0007
3753.00,0.0007
3740.00,0.0005
3727.00,0.0006
3714.00,0.0006
3701.00,0.0006
3688.00,0.0006
3675.00,0.0005
3662.00,0.0005
3649.00,0.0005
3636.00,0.0006
3623.00,0.0006
3610.00,0.0005
3597.00,0.0006
3584.00,0.0006
3571.00,0.0007
3558.00,0.0008
3545.00,0.0008
3532.00,0.0008
3519.00,0.0009
3506.00,0.0009
3493.00,0.0010
3480.00,0.0010
3467.00,0.0012
3454.00,0.0011
3441.00,0.0012
3428.00,0.0012
3415.00,0.0011
3402.00,0.0011
3389.00,0.0011
3376.00,0.0011
3363.00,0.0011
3350.00,0.0011
3337.00,0.0011
3324.00,0.0011
3311.00,0.0011
3298.00,0.0012
3285.00,0.0011
3272.00,0.0011
3259.00,0.0010
3246.00,0.0010
3233.00,0.0010
3220.00,0.0010
3207.00,0.0011
3194.00,0.0010
3181.00,0.0010
3168.00,0.0011
3155.00,0.0010
3142.00,0.0010
3129.00,0.0010
3116.00,0.0015
3103.00,0.0034
3090.00,0.0049
3077.00,0.0071
3064.00,0.0107
3051.00,0.0076
3038.00,0.0086
3025.00,0.0240
3012.00,0.0064
2999.00,0.0058
2986.00,0.0026
2973.00,0.0030
2960.00,0.0053
2947.00,0.0102
2934.00,0.0212
2921.00,0.0291
2908.00,0.0219
2895.00,0.0128
2882.00,0.0087
2869.00,0.0070
2856.00,0.0108
2843.00,0.0100
2830.00,0.0032
2817.00,0.0023
2804.00,0.0021
2791.00,0.0018
2778.00,0.0017
2765.00,0.0014
2752.00,0.0014
2739.00,0.0014
2726.00,0.0014
2713.00,0.0014
2700.00,0.0014
2687.00,0.0014
2674.00,0.0014
2661.00,0.0017
2648.00,0.0019
2635.00,0.0020
2622.00,0.0018
2609.00,0.0016
2596.00,0.0015
2583.00,0.0014
2570.00,0.0012
2557.00,0.0011
2544.00,0.0011
2531.00,0.0010
2518.00,0.0010
2505.00,0.0010
2492.00,0.0010
2479.00,0.0008
2466.00,0.0007
2453.00,0.0009
2440.00,0.0007
2427.00,0.0006
2414.00,0.0005
2401.00,0.0004
2388.00,0.0003
2375.00,0.0003
2362.00,0.0005
2349.00,0.0007
2336.00,0.0011
2323.00,0.0022
2310.00,0.0015
2297.00,0.0014
2284.00,0.0017
2271.00,0.0011
2258.00,0.0011
2245.00,0.0008
2232.00,0.0009
2219.00,0.0006
2206.00,0.0006
2193.00,0.0010
2180.00,0.0000
2167.00,0.0016
2154.00,-0.0018
2141.00,-0.0014
2128.00,-0.0010
2115.00,0.0002
2102.00,0.0002
2089.00,0.0001
2076.00,0.0002
2063.00,0.0000
2050.00,0.0005
2037.00,0.0002
2024.00,-0.0003
2011.00,-0.0004
1998.00,-0.0001
1985.00,0.0010
1972.00,-0.0004
1959.00,0.0008
1946.00,0.0025
1933.00,0.0011
1920.00,0.0003
1907.00,0.0001
1894.00,0.0009
1881.00,0.0021
1868.00,0.0025
1855.00,0.0009
1842.00,0.0004
1829.00,0.0008
1816.00,0.0016
1803.00,0.0031
1790.00,0.0018
1777.00,0.0016
1764.00,0.0019
1751.00,0.0035
1738.00,0.0045
1725.00,0.0036
1712.00,0.0027
1699.00,0.0024
1686.00,0.0026
1673.00,0.0029
1660.00,0.0026
1647.00,0.0021
1634.00,0.0019
1621.00,0.0023
1608.00,0.0083
1595.00,0.0108
1582.00,0.0084
1569.00,0.0021
1556.00,0.0021
1543.00,0.0029
1530.00,0.0019
1517.00,0.0017
1504.00,0.0042
1491.00,0.0467
1478.00,0.0056
1465.00,0.0059
1452.00,0.0527
1439.00,0.0192
1426.00,0.0056
1413.00,0.0041
1400.00,0.0039
1387.00,0.0069
1374.00,0.0110
1361.00,0.0103
1348.00,0.0092
1335.00,0.0082
1322.00,0.0087
1309.00,0.0088
1296.00,0.0071
1283.00,0.0065
1270.00,0.0052
1257.00,0.0046
1244.00,0.0048
1231.00,0.0047
1218.00,0.0048
1205.00,0.0062
1192.00,0.0078
1179.00,0.0101
1166.00,0.0061
1153.00,0.0102
1140.00,0.0042
1127.00,0.0041
1114.00,0.0056
1101.00,0.0057
1088.00,0.0070
1075.00,0.0117
1062.00,0.0113
1049.00,0.0074
1036.00,0.0107
1023.00,0.0183
1010.00,0.0096
997.00,0.0074
984.00,0.0084
971.00,0.0082
958.00,0.0078
945.00,0.0076
932.00,0.0054
919.00,0.0065
906.00,0.0162
893.00,0.0056
880.00,0.0038
867.00,0.0032
854.00,0.0037
841.00,0.0079
828.00,0.0031
815.00,0.0031
802.00,0.0037
789.00,0.0076
776.00,0.0208
763.00,0.0539
750.00,0.0682
737.00,0.0292
724.00,0.0074
711.00,0.0186
698.00,0.1584
685.00,0.0572
672.00,0.0264
659.00,0.0157
646.00,0.0101
633.00,0.0113
620.00,0.0137
607.00,0.0106
594.00,0.0118
581.00,0.0152
568.00,0.0264
555.00,0.0374
542.00,0.0576
529.00,0.0403
516.00,0.0202
503.00,0.0130
490.00,0.0101
477.00,0.0086
464.00,0.0080
451.00,0.0072
438.00,0.0069
425.00,0.0064
412.00,0.0061
400.00,0.0060