File: FTIR/Olivia/2025_07_30_Polystyrene_Std_scan4.csv
Created as New Dataset,Sample 960 By YargerLab Date Wednesday, July 30 2025
cm-1,A
4000.00,0.0006
3987.00,0.0006
3974.00,0.0006
3961.00,0.0005
3948.00,0.0006
3935.00,0.0006
3922.00,0.0006
3909.00,0.0006
3896.00,0.0005
3883.00,0.0005
3870.00,0.0004
3857.00,0.0005
3844.00,0.0005
3831.00,0.0005
3818.00,0.0004
3805.00,0.0006
3792.00,0.0006
3779.00,0.0006
3766.00,0.0005
3753.00,0.0006
3740.00,0.0005
3727.00,0.0005
3714.00,0.0006
3701.00,0.0004
3688.00,0.0004
3675.00,0.0003
3662.00,0.0005
3649.00,0.0004
3636.00,0.0005
3623.00,0.0005
3610.00,0.0004
3597.00,0.0006
3584.00,0.0006
3571.00,0.0006
3558.00,0.0007
3545.00,0.0008
3532.00,0.0009
3519.00,0.0009
3506.00,0.0011
3493.00,0.0012
3480.00,0.0012
3467.00,0.0013
3454.00,0.0014
3441.00,0.0014
3428.00,0.0016
3415.00,0.0017
3402.00,0.0018
3389.00,0.0018
3376.00,0.0019
3363.00,0.0019
3350.00,0.0021
3337.00,0.0022
3324.00,0.0021
3311.00,0.0020
3298.00,0.0021
3285.00,0.0020
3272.00,0.0020
3259.00,0.0019
3246.00,0.0017
3233.00,0.0015
3220.00,0.0015
3207.00,0.0014
3194.00,0.0013
3181.00,0.0012
3168.00,0.0012
3155.00,0.0011
3142.00,0.0011
3129.00,0.0011
3116.00,0.0011
3103.00,0.0016
3090.00,0.0019
3077.00,0.0026
3064.00,0.0033
3051.00,0.0027
3038.00,0.0027
3025.00,0.0070
3012.00,0.0022
2999.00,0.0021
2986.00,0.0013
2973.00,0.0015
2960.00,0.0020
2947.00,0.0032
2934.00,0.0059
2921.00,0.0083
2908.00,0.0067
2895.00,0.0042
2882.00,0.0031
2869.00,0.0026
2856.00,0.0034
2843.00,0.0033
2830.00,0.0015
2817.00,0.0011
2804.00,0.0011
2791.00,0.0010
2778.00,0.0009
2765.00,0.0009
2752.00,0.0009
2739.00,0.0009
2726.00,0.0009
2713.00,0.0009
2700.00,0.0009
2687.00,0.0009
2674.00,0.0008
2661.00,0.0011
2648.00,0.0013
2635.00,0.0012
2622.00,0.0011
2609.00,0.0011
2596.00,0.0010
2583.00,0.0009
2570.00,0.0008
2557.00,0.0007
2544.00,0.0008
2531.00,0.0006
2518.00,0.0007
2505.00,0.0006
2492.00,0.0006
2479.00,0.0005
2466.00,0.0005
2453.00,0.0006
2440.00,0.0005
2427.00,0.0004
2414.00,0.0004
2401.00,0.0002
2388.00,0.0002
2375.00,0.0003
2362.00,0.0004
2349.00,0.0008
2336.00,0.0009
2323.00,0.0018
2310.00,0.0011
2297.00,0.0011
2284.00,0.0014
2271.00,0.0010
2258.00,0.0009
2245.00,0.0007
2232.00,0.0007
2219.00,0.0005
2206.00,0.0006
2193.00,0.0006
2180.00,0.0003
2167.00,0.0015
2154.00,-0.0013
2141.00,-0.0010
2128.00,-0.0008
2115.00,0.0005
2102.00,0.0003
2089.00,0.0002
2076.00,0.0003
2063.00,0.0003
2050.00,0.0011
2037.00,0.0003
2024.00,-0.0002
2011.00,-0.0003
1998.00,-0.0004
1985.00,0.0006
1972.00,-0.0006
1959.00,-0.0005
1946.00,0.0005
1933.00,0.0001
1920.00,-0.0001
1907.00,0.0000
1894.00,0.0002
1881.00,0.0006
1868.00,0.0007
1855.00,0.0004
1842.00,0.0001
1829.00,0.0003
1816.00,0.0003
1803.00,0.0011
1790.00,0.0007
1777.00,0.0006
1764.00,0.0008
1751.00,0.0013
1738.00,0.0016
1725.00,0.0014
1712.00,0.0012
1699.00,0.0011
1686.00,0.0011
1673.00,0.0019
1660.00,0.0020
1647.00,0.0016
1634.00,0.0014
1621.00,0.0014
1608.00,0.0031
1595.00,0.0041
1582.00,0.0032
1569.00,0.0012
1556.00,0.0011
1543.00,0.0015
1530.00,0.0012
1517.00,0.0011
1504.00,0.0019
1491.00,0.0174
1478.00,0.0026
1465.00,0.0029
1452.00,0.0185
1439.00,0.0077
1426.00,0.0029
1413.00,0.0022
1400.00,0.0022
1387.00,0.0033
1374.00,0.0050
1361.00,0.0048
1348.00,0.0044
1335.00,0.0043
1322.00,0.0045
1309.00,0.0047
1296.00,0.0038
1283.00,0.0036
1270.00,0.0030
1257.00,0.0027
1244.00,0.0028
1231.00,0.0027
1218.00,0.0027
1205.00,0.0034
1192.00,0.0040
1179.00,0.0049
1166.00,0.0041
1153.00,0.0059
1140.00,0.0032
1127.00,0.0035
1114.00,0.0050
1101.00,0.0053
1088.00,0.0055
1075.00,0.0077
1062.00,0.0085
1049.00,0.0072
1036.00,0.0084
1023.00,0.0118
1010.00,0.0079
997.00,0.0071
984.00,0.0076
971.00,0.0070
958.00,0.0065
945.00,0.0060
932.00,0.0048
919.00,0.0051
906.00,0.0094
893.00,0.0045
880.00,0.0036
867.00,0.0032
854.00,0.0034
841.00,0.0054
828.00,0.0029
815.00,0.0029
802.00,0.0032
789.00,0.0051
776.00,0.0108
763.00,0.0259
750.00,0.0330
737.00,0.0152
724.00,0.0055
711.00,0.0107
698.00,0.0837
685.00,0.0358
672.00,0.0170
659.00,0.0110
646.00,0.0076
633.00,0.0082
620.00,0.0096
607.00,0.0079
594.00,0.0091
581.00,0.0111
568.00,0.0170
555.00,0.0234
542.00,0.0346
529.00,0.0268
516.00,0.0153
503.00,0.0108
490.00,0.0094
477.00,0.0085
464.00,0.0081
451.00,0.0075
438.00,0.0077
425.00,0.0055
412.00,0.0057
400.00,0.0042