File: FTIR/Olivia/2025_08_06_1CBN_3PVP40_MP_Powder_Scan2.csv
Created as New Dataset,Sample 1086 By YargerLab Date Wednesday, August 06 2025
cm-1,A
4000.00,0.0098
3987.00,0.0098
3974.00,0.0097
3961.00,0.0097
3948.00,0.0097
3935.00,0.0097
3922.00,0.0097
3909.00,0.0096
3896.00,0.0096
3883.00,0.0095
3870.00,0.0095
3857.00,0.0096
3844.00,0.0096
3831.00,0.0095
3818.00,0.0094
3805.00,0.0094
3792.00,0.0094
3779.00,0.0094
3766.00,0.0095
3753.00,0.0094
3740.00,0.0093
3727.00,0.0092
3714.00,0.0092
3701.00,0.0092
3688.00,0.0094
3675.00,0.0096
3662.00,0.0099
3649.00,0.0103
3636.00,0.0110
3623.00,0.0119
3610.00,0.0131
3597.00,0.0142
3584.00,0.0159
3571.00,0.0175
3558.00,0.0194
3545.00,0.0213
3532.00,0.0228
3519.00,0.0243
3506.00,0.0254
3493.00,0.0268
3480.00,0.0285
3467.00,0.0306
3454.00,0.0328
3441.00,0.0353
3428.00,0.0384
3415.00,0.0419
3402.00,0.0440
3389.00,0.0429
3376.00,0.0399
3363.00,0.0371
3350.00,0.0350
3337.00,0.0339
3324.00,0.0336
3311.00,0.0338
3298.00,0.0347
3285.00,0.0359
3272.00,0.0365
3259.00,0.0376
3246.00,0.0382
3233.00,0.0380
3220.00,0.0372
3207.00,0.0353
3194.00,0.0326
3181.00,0.0299
3168.00,0.0272
3155.00,0.0245
3142.00,0.0222
3129.00,0.0205
3116.00,0.0192
3103.00,0.0177
3090.00,0.0174
3077.00,0.0170
3064.00,0.0166
3051.00,0.0166
3038.00,0.0170
3025.00,0.0167
3012.00,0.0167
2999.00,0.0215
2986.00,0.0300
2973.00,0.0424
2960.00,0.0539
2947.00,0.0454
2934.00,0.0636
2921.00,0.0711
2908.00,0.0491
2895.00,0.0399
2882.00,0.0366
2869.00,0.0415
2856.00,0.0550
2843.00,0.0334
2830.00,0.0228
2817.00,0.0188
2804.00,0.0171
2791.00,0.0159
2778.00,0.0150
2765.00,0.0146
2752.00,0.0145
2739.00,0.0148
2726.00,0.0152
2713.00,0.0146
2700.00,0.0143
2687.00,0.0138
2674.00,0.0138
2661.00,0.0143
2648.00,0.0144
2635.00,0.0140
2622.00,0.0134
2609.00,0.0133
2596.00,0.0135
2583.00,0.0136
2570.00,0.0133
2557.00,0.0130
2544.00,0.0128
2531.00,0.0127
2518.00,0.0123
2505.00,0.0120
2492.00,0.0118
2479.00,0.0117
2466.00,0.0115
2453.00,0.0117
2440.00,0.0114
2427.00,0.0113
2414.00,0.0113
2401.00,0.0112
2388.00,0.0110
2375.00,0.0108
2362.00,0.0108
2349.00,0.0110
2336.00,0.0115
2323.00,0.0125
2310.00,0.0114
2297.00,0.0118
2284.00,0.0122
2271.00,0.0114
2258.00,0.0110
2245.00,0.0109
2232.00,0.0110
2219.00,0.0109
2206.00,0.0109
2193.00,0.0110
2180.00,0.0110
2167.00,0.0121
2154.00,0.0083
2141.00,0.0091
2128.00,0.0094
2115.00,0.0107
2102.00,0.0102
2089.00,0.0101
2076.00,0.0105
2063.00,0.0096
2050.00,0.0104
2037.00,0.0099
2024.00,0.0090
2011.00,0.0086
1998.00,0.0088
1985.00,0.0098
1972.00,0.0085
1959.00,0.0081
1946.00,0.0088
1933.00,0.0088
1920.00,0.0094
1907.00,0.0108
1894.00,0.0100
1881.00,0.0093
1868.00,0.0097
1855.00,0.0095
1842.00,0.0097
1829.00,0.0095
1816.00,0.0092
1803.00,0.0100
1790.00,0.0099
1777.00,0.0107
1764.00,0.0108
1751.00,0.0118
1738.00,0.0122
1725.00,0.0151
1712.00,0.0200
1699.00,0.0342
1686.00,0.0704
1673.00,0.1139
1660.00,0.1428
1647.00,0.1454
1634.00,0.1127
1621.00,0.1309
1608.00,0.0886
1595.00,0.0506
1582.00,0.0742
1569.00,0.0472
1556.00,0.0276
1543.00,0.0240
1530.00,0.0220
1517.00,0.0258
1504.00,0.0360
1491.00,0.0554
1478.00,0.0313
1465.00,0.0811
1452.00,0.0697
1439.00,0.1054
1426.00,0.1334
1413.00,0.0921
1400.00,0.0905
1387.00,0.0668
1374.00,0.0640
1361.00,0.0758
1348.00,0.0575
1335.00,0.0466
1322.00,0.0586
1309.00,0.0570
1296.00,0.0996
1283.00,0.1453
1270.00,0.1170
1257.00,0.0747
1244.00,0.0752
1231.00,0.0945
1218.00,0.0777
1205.00,0.0619
1192.00,0.0843
1179.00,0.0497
1166.00,0.0503
1153.00,0.0782
1140.00,0.0398
1127.00,0.0879
1114.00,0.0492
1101.00,0.0629
1088.00,0.0383
1075.00,0.0395
1062.00,0.0546
1049.00,0.1128
1036.00,0.0635
1023.00,0.0887
1010.00,0.0478
997.00,0.0549
984.00,0.0360
971.00,0.0327
958.00,0.0301
945.00,0.0282
932.00,0.0387
919.00,0.0361
906.00,0.0288
893.00,0.0376
880.00,0.0322
867.00,0.0671
854.00,0.0582
841.00,0.0591
828.00,0.0556
815.00,0.0868
802.00,0.0333
789.00,0.0319
776.00,0.0385
763.00,0.0402
750.00,0.0468
737.00,0.0701
724.00,0.0614
711.00,0.0593
698.00,0.0643
685.00,0.0699
672.00,0.0838
659.00,0.0932
646.00,0.0950
633.00,0.0863
620.00,0.0917
607.00,0.0912
594.00,0.1060
581.00,0.1126
568.00,0.1132
555.00,0.1123
542.00,0.1129
529.00,0.1128
516.00,0.0964
503.00,0.0968
490.00,0.0976
477.00,0.0943
464.00,0.0922
451.00,0.0893
438.00,0.0853
425.00,0.0784
412.00,0.0808
400.00,0.0771