File: FTIR/Olivia/2025_08_06_Polystyrene_film_scan2.csv
Created as New Dataset,Sample 1083 By YargerLab Date Wednesday, August 06 2025
cm-1,A
4000.00,0.0007
3987.00,0.0007
3974.00,0.0007
3961.00,0.0007
3948.00,0.0007
3935.00,0.0007
3922.00,0.0008
3909.00,0.0007
3896.00,0.0007
3883.00,0.0008
3870.00,0.0009
3857.00,0.0009
3844.00,0.0008
3831.00,0.0009
3818.00,0.0010
3805.00,0.0010
3792.00,0.0008
3779.00,0.0008
3766.00,0.0008
3753.00,0.0011
3740.00,0.0010
3727.00,0.0008
3714.00,0.0008
3701.00,0.0007
3688.00,0.0009
3675.00,0.0010
3662.00,0.0008
3649.00,0.0012
3636.00,0.0008
3623.00,0.0008
3610.00,0.0008
3597.00,0.0008
3584.00,0.0008
3571.00,0.0008
3558.00,0.0009
3545.00,0.0009
3532.00,0.0010
3519.00,0.0011
3506.00,0.0011
3493.00,0.0011
3480.00,0.0012
3467.00,0.0012
3454.00,0.0012
3441.00,0.0012
3428.00,0.0012
3415.00,0.0012
3402.00,0.0012
3389.00,0.0011
3376.00,0.0012
3363.00,0.0012
3350.00,0.0011
3337.00,0.0011
3324.00,0.0011
3311.00,0.0011
3298.00,0.0010
3285.00,0.0010
3272.00,0.0011
3259.00,0.0010
3246.00,0.0010
3233.00,0.0009
3220.00,0.0009
3207.00,0.0010
3194.00,0.0010
3181.00,0.0008
3168.00,0.0008
3155.00,0.0008
3142.00,0.0008
3129.00,0.0008
3116.00,0.0011
3103.00,0.0025
3090.00,0.0033
3077.00,0.0052
3064.00,0.0074
3051.00,0.0056
3038.00,0.0059
3025.00,0.0172
3012.00,0.0047
2999.00,0.0050
2986.00,0.0031
2973.00,0.0034
2960.00,0.0039
2947.00,0.0068
2934.00,0.0139
2921.00,0.0196
2908.00,0.0153
2895.00,0.0091
2882.00,0.0063
2869.00,0.0048
2856.00,0.0069
2843.00,0.0070
2830.00,0.0024
2817.00,0.0017
2804.00,0.0016
2791.00,0.0013
2778.00,0.0013
2765.00,0.0012
2752.00,0.0011
2739.00,0.0011
2726.00,0.0011
2713.00,0.0012
2700.00,0.0011
2687.00,0.0012
2674.00,0.0011
2661.00,0.0015
2648.00,0.0017
2635.00,0.0017
2622.00,0.0015
2609.00,0.0014
2596.00,0.0014
2583.00,0.0012
2570.00,0.0010
2557.00,0.0010
2544.00,0.0008
2531.00,0.0009
2518.00,0.0009
2505.00,0.0008
2492.00,0.0007
2479.00,0.0008
2466.00,0.0007
2453.00,0.0008
2440.00,0.0007
2427.00,0.0005
2414.00,0.0005
2401.00,0.0004
2388.00,0.0004
2375.00,0.0003
2362.00,0.0004
2349.00,0.0005
2336.00,0.0010
2323.00,0.0019
2310.00,0.0013
2297.00,0.0013
2284.00,0.0016
2271.00,0.0013
2258.00,0.0010
2245.00,0.0008
2232.00,0.0009
2219.00,0.0008
2206.00,0.0006
2193.00,0.0009
2180.00,0.0002
2167.00,0.0015
2154.00,-0.0016
2141.00,-0.0013
2128.00,-0.0007
2115.00,0.0003
2102.00,0.0002
2089.00,0.0002
2076.00,0.0005
2063.00,0.0002
2050.00,0.0010
2037.00,0.0004
2024.00,-0.0003
2011.00,-0.0002
1998.00,-0.0000
1985.00,0.0008
1972.00,-0.0002
1959.00,0.0003
1946.00,0.0019
1933.00,0.0008
1920.00,0.0001
1907.00,0.0000
1894.00,0.0007
1881.00,0.0016
1868.00,0.0020
1855.00,0.0008
1842.00,0.0003
1829.00,0.0007
1816.00,0.0013
1803.00,0.0025
1790.00,0.0015
1777.00,0.0013
1764.00,0.0016
1751.00,0.0026
1738.00,0.0030
1725.00,0.0023
1712.00,0.0019
1699.00,0.0019
1686.00,0.0023
1673.00,0.0029
1660.00,0.0030
1647.00,0.0022
1634.00,0.0018
1621.00,0.0021
1608.00,0.0069
1595.00,0.0094
1582.00,0.0074
1569.00,0.0021
1556.00,0.0018
1543.00,0.0028
1530.00,0.0020
1517.00,0.0018
1504.00,0.0039
1491.00,0.0430
1478.00,0.0054
1465.00,0.0055
1452.00,0.0470
1439.00,0.0174
1426.00,0.0052
1413.00,0.0038
1400.00,0.0039
1387.00,0.0067
1374.00,0.0104
1361.00,0.0094
1348.00,0.0085
1335.00,0.0076
1322.00,0.0082
1309.00,0.0084
1296.00,0.0070
1283.00,0.0061
1270.00,0.0050
1257.00,0.0046
1244.00,0.0049
1231.00,0.0046
1218.00,0.0047
1205.00,0.0060
1192.00,0.0075
1179.00,0.0099
1166.00,0.0063
1153.00,0.0107
1140.00,0.0047
1127.00,0.0044
1114.00,0.0059
1101.00,0.0060
1088.00,0.0076
1075.00,0.0123
1062.00,0.0121
1049.00,0.0079
1036.00,0.0108
1023.00,0.0187
1010.00,0.0100
997.00,0.0080
984.00,0.0092
971.00,0.0094
958.00,0.0093
945.00,0.0090
932.00,0.0065
919.00,0.0073
906.00,0.0177
893.00,0.0064
880.00,0.0046
867.00,0.0040
854.00,0.0046
841.00,0.0090
828.00,0.0041
815.00,0.0041
802.00,0.0046
789.00,0.0088
776.00,0.0226
763.00,0.0595
750.00,0.0765
737.00,0.0325
724.00,0.0088
711.00,0.0204
698.00,0.2074
685.00,0.0744
672.00,0.0332
659.00,0.0198
646.00,0.0124
633.00,0.0140
620.00,0.0166
607.00,0.0128
594.00,0.0145
581.00,0.0186
568.00,0.0315
555.00,0.0454
542.00,0.0717
529.00,0.0512
516.00,0.0256
503.00,0.0169
490.00,0.0134
477.00,0.0111
464.00,0.0105
451.00,0.0088
438.00,0.0091
425.00,0.0078
412.00,0.0075
400.00,0.0074