File: FTIR/Olivia/2025_08_06_1CBN_3PVP90_MP_Powder_Scan3.csv
Created as New Dataset,Sample 004 By YargerLab Date Wednesday, August 06 2025
cm-1,A
4000.00,0.0039
3987.00,0.0039
3974.00,0.0040
3961.00,0.0039
3948.00,0.0038
3935.00,0.0039
3922.00,0.0039
3909.00,0.0039
3896.00,0.0038
3883.00,0.0037
3870.00,0.0038
3857.00,0.0037
3844.00,0.0038
3831.00,0.0038
3818.00,0.0038
3805.00,0.0037
3792.00,0.0038
3779.00,0.0038
3766.00,0.0038
3753.00,0.0037
3740.00,0.0036
3727.00,0.0035
3714.00,0.0035
3701.00,0.0035
3688.00,0.0034
3675.00,0.0033
3662.00,0.0034
3649.00,0.0032
3636.00,0.0032
3623.00,0.0032
3610.00,0.0032
3597.00,0.0031
3584.00,0.0029
3571.00,0.0029
3558.00,0.0031
3545.00,0.0033
3532.00,0.0036
3519.00,0.0039
3506.00,0.0042
3493.00,0.0047
3480.00,0.0054
3467.00,0.0064
3454.00,0.0076
3441.00,0.0090
3428.00,0.0109
3415.00,0.0133
3402.00,0.0152
3389.00,0.0152
3376.00,0.0139
3363.00,0.0127
3350.00,0.0118
3337.00,0.0114
3324.00,0.0113
3311.00,0.0117
3298.00,0.0123
3285.00,0.0132
3272.00,0.0142
3259.00,0.0153
3246.00,0.0163
3233.00,0.0169
3220.00,0.0171
3207.00,0.0165
3194.00,0.0155
3181.00,0.0143
3168.00,0.0129
3155.00,0.0114
3142.00,0.0102
3129.00,0.0093
3116.00,0.0086
3103.00,0.0077
3090.00,0.0076
3077.00,0.0076
3064.00,0.0073
3051.00,0.0074
3038.00,0.0076
3025.00,0.0073
3012.00,0.0067
2999.00,0.0087
2986.00,0.0118
2973.00,0.0182
2960.00,0.0236
2947.00,0.0183
2934.00,0.0306
2921.00,0.0361
2908.00,0.0231
2895.00,0.0169
2882.00,0.0146
2869.00,0.0185
2856.00,0.0283
2843.00,0.0168
2830.00,0.0104
2817.00,0.0085
2804.00,0.0076
2791.00,0.0071
2778.00,0.0066
2765.00,0.0064
2752.00,0.0064
2739.00,0.0066
2726.00,0.0069
2713.00,0.0065
2700.00,0.0064
2687.00,0.0062
2674.00,0.0060
2661.00,0.0066
2648.00,0.0067
2635.00,0.0065
2622.00,0.0062
2609.00,0.0060
2596.00,0.0061
2583.00,0.0060
2570.00,0.0058
2557.00,0.0056
2544.00,0.0055
2531.00,0.0055
2518.00,0.0052
2505.00,0.0051
2492.00,0.0049
2479.00,0.0048
2466.00,0.0048
2453.00,0.0048
2440.00,0.0047
2427.00,0.0045
2414.00,0.0045
2401.00,0.0043
2388.00,0.0042
2375.00,0.0037
2362.00,0.0037
2349.00,0.0038
2336.00,0.0042
2323.00,0.0051
2310.00,0.0041
2297.00,0.0045
2284.00,0.0052
2271.00,0.0047
2258.00,0.0043
2245.00,0.0043
2232.00,0.0043
2219.00,0.0044
2206.00,0.0043
2193.00,0.0041
2180.00,0.0042
2167.00,0.0052
2154.00,0.0019
2141.00,0.0023
2128.00,0.0025
2115.00,0.0038
2102.00,0.0035
2089.00,0.0036
2076.00,0.0040
2063.00,0.0035
2050.00,0.0045
2037.00,0.0039
2024.00,0.0030
2011.00,0.0033
1998.00,0.0031
1985.00,0.0042
1972.00,0.0026
1959.00,0.0021
1946.00,0.0028
1933.00,0.0030
1920.00,0.0033
1907.00,0.0045
1894.00,0.0040
1881.00,0.0035
1868.00,0.0034
1855.00,0.0036
1842.00,0.0038
1829.00,0.0034
1816.00,0.0033
1803.00,0.0036
1790.00,0.0039
1777.00,0.0039
1764.00,0.0039
1751.00,0.0037
1738.00,0.0039
1725.00,0.0044
1712.00,0.0050
1699.00,0.0075
1686.00,0.0120
1673.00,0.0113
1660.00,0.0090
1647.00,0.0067
1634.00,0.0099
1621.00,0.0477
1608.00,0.0359
1595.00,0.0177
1582.00,0.0405
1569.00,0.0243
1556.00,0.0116
1543.00,0.0089
1530.00,0.0080
1517.00,0.0102
1504.00,0.0135
1491.00,0.0196
1478.00,0.0105
1465.00,0.0259
1452.00,0.0234
1439.00,0.0323
1426.00,0.0411
1413.00,0.0304
1400.00,0.0512
1387.00,0.0334
1374.00,0.0253
1361.00,0.0396
1348.00,0.0304
1335.00,0.0214
1322.00,0.0206
1309.00,0.0202
1296.00,0.0327
1283.00,0.0396
1270.00,0.0209
1257.00,0.0161
1244.00,0.0270
1231.00,0.0386
1218.00,0.0272
1205.00,0.0217
1192.00,0.0431
1179.00,0.0170
1166.00,0.0150
1153.00,0.0426
1140.00,0.0158
1127.00,0.0536
1114.00,0.0230
1101.00,0.0326
1088.00,0.0139
1075.00,0.0133
1062.00,0.0263
1049.00,0.0746
1036.00,0.0355
1023.00,0.0538
1010.00,0.0222
997.00,0.0274
984.00,0.0158
971.00,0.0145
958.00,0.0132
945.00,0.0111
932.00,0.0164
919.00,0.0168
906.00,0.0113
893.00,0.0161
880.00,0.0139
867.00,0.0409
854.00,0.0282
841.00,0.0256
828.00,0.0283
815.00,0.0573
802.00,0.0128
789.00,0.0107
776.00,0.0145
763.00,0.0124
750.00,0.0121
737.00,0.0253
724.00,0.0212
711.00,0.0208
698.00,0.0229
685.00,0.0232
672.00,0.0296
659.00,0.0281
646.00,0.0216
633.00,0.0201
620.00,0.0266
607.00,0.0259
594.00,0.0351
581.00,0.0321
568.00,0.0281
555.00,0.0326
542.00,0.0362
529.00,0.0371
516.00,0.0225
503.00,0.0236
490.00,0.0238
477.00,0.0193
464.00,0.0186
451.00,0.0187
438.00,0.0184
425.00,0.0167
412.00,0.0203
400.00,0.0148