File: FTIR/Olivia/2025_06_18_CBD_SorbicAcid_Cocrystal_Slurry_Vial_scan1.csv
Created as New Dataset,Sample 712 By YargerLab Date Wednesday, June 18 2025
cm-1,A
4000.00,0.0011
3987.00,0.0011
3974.00,0.0011
3961.00,0.0012
3948.00,0.0011
3935.00,0.0011
3922.00,0.0011
3909.00,0.0011
3896.00,0.0010
3883.00,0.0010
3870.00,0.0010
3857.00,0.0011
3844.00,0.0010
3831.00,0.0010
3818.00,0.0010
3805.00,0.0010
3792.00,0.0010
3779.00,0.0010
3766.00,0.0010
3753.00,0.0010
3740.00,0.0009
3727.00,0.0009
3714.00,0.0008
3701.00,0.0009
3688.00,0.0008
3675.00,0.0007
3662.00,0.0007
3649.00,0.0006
3636.00,0.0007
3623.00,0.0007
3610.00,0.0008
3597.00,0.0008
3584.00,0.0009
3571.00,0.0010
3558.00,0.0010
3545.00,0.0011
3532.00,0.0014
3519.00,0.0016
3506.00,0.0020
3493.00,0.0028
3480.00,0.0039
3467.00,0.0062
3454.00,0.0141
3441.00,0.0143
3428.00,0.0094
3415.00,0.0063
3402.00,0.0047
3389.00,0.0042
3376.00,0.0040
3363.00,0.0040
3350.00,0.0042
3337.00,0.0044
3324.00,0.0046
3311.00,0.0049
3298.00,0.0052
3285.00,0.0058
3272.00,0.0062
3259.00,0.0068
3246.00,0.0072
3233.00,0.0077
3220.00,0.0083
3207.00,0.0087
3194.00,0.0092
3181.00,0.0096
3168.00,0.0098
3155.00,0.0100
3142.00,0.0105
3129.00,0.0109
3116.00,0.0112
3103.00,0.0117
3090.00,0.0119
3077.00,0.0124
3064.00,0.0124
3051.00,0.0110
3038.00,0.0107
3025.00,0.0102
3012.00,0.0097
2999.00,0.0096
2986.00,0.0107
2973.00,0.0124
2960.00,0.0158
2947.00,0.0169
2934.00,0.0213
2921.00,0.0259
2908.00,0.0184
2895.00,0.0141
2882.00,0.0133
2869.00,0.0152
2856.00,0.0164
2843.00,0.0122
2830.00,0.0109
2817.00,0.0080
2804.00,0.0073
2791.00,0.0070
2778.00,0.0071
2765.00,0.0075
2752.00,0.0076
2739.00,0.0077
2726.00,0.0079
2713.00,0.0079
2700.00,0.0080
2687.00,0.0080
2674.00,0.0079
2661.00,0.0083
2648.00,0.0083
2635.00,0.0081
2622.00,0.0079
2609.00,0.0077
2596.00,0.0073
2583.00,0.0070
2570.00,0.0069
2557.00,0.0069
2544.00,0.0067
2531.00,0.0064
2518.00,0.0061
2505.00,0.0057
2492.00,0.0056
2479.00,0.0055
2466.00,0.0055
2453.00,0.0057
2440.00,0.0055
2427.00,0.0054
2414.00,0.0052
2401.00,0.0047
2388.00,0.0042
2375.00,0.0036
2362.00,0.0033
2349.00,0.0030
2336.00,0.0031
2323.00,0.0039
2310.00,0.0029
2297.00,0.0030
2284.00,0.0034
2271.00,0.0028
2258.00,0.0027
2245.00,0.0021
2232.00,0.0022
2219.00,0.0020
2206.00,0.0019
2193.00,0.0022
2180.00,0.0016
2167.00,0.0032
2154.00,-0.0013
2141.00,-0.0003
2128.00,-0.0001
2115.00,0.0012
2102.00,0.0009
2089.00,0.0009
2076.00,0.0011
2063.00,0.0009
2050.00,0.0019
2037.00,0.0012
2024.00,0.0003
2011.00,0.0008
1998.00,0.0004
1985.00,0.0012
1972.00,-0.0000
1959.00,-0.0005
1946.00,0.0002
1933.00,0.0002
1920.00,0.0005
1907.00,0.0004
1894.00,0.0004
1881.00,0.0005
1868.00,0.0007
1855.00,0.0006
1842.00,0.0007
1829.00,0.0007
1816.00,0.0004
1803.00,0.0008
1790.00,0.0012
1777.00,0.0013
1764.00,0.0013
1751.00,0.0013
1738.00,0.0015
1725.00,0.0017
1712.00,0.0019
1699.00,0.0022
1686.00,0.0026
1673.00,0.0036
1660.00,0.0067
1647.00,0.0174
1634.00,0.0386
1621.00,0.0234
1608.00,0.0145
1595.00,0.0192
1582.00,0.0400
1569.00,0.0406
1556.00,0.0252
1543.00,0.0164
1530.00,0.0141
1517.00,0.0115
1504.00,0.0075
1491.00,0.0066
1478.00,0.0085
1465.00,0.0153
1452.00,0.0328
1439.00,0.0399
1426.00,0.0225
1413.00,0.0195
1400.00,0.0212
1387.00,0.0176
1374.00,0.0228
1361.00,0.0206
1348.00,0.0270
1335.00,0.0249
1322.00,0.0302
1309.00,0.0217
1296.00,0.0202
1283.00,0.0298
1270.00,0.0171
1257.00,0.0139
1244.00,0.0248
1231.00,0.0155
1218.00,0.0157
1205.00,0.0257
1192.00,0.0110
1179.00,0.0134
1166.00,0.0170
1153.00,0.0135
1140.00,0.0078
1127.00,0.0051
1114.00,0.0050
1101.00,0.0091
1088.00,0.0062
1075.00,0.0058
1062.00,0.0101
1049.00,0.0173
1036.00,0.0279
1023.00,0.0162
1010.00,0.0095
997.00,0.0109
984.00,0.0084
971.00,0.0068
958.00,0.0110
945.00,0.0093
932.00,0.0081
919.00,0.0124
906.00,0.0125
893.00,0.0190
880.00,0.0213
867.00,0.0184
854.00,0.0271
841.00,0.0244
828.00,0.0177
815.00,0.0105
802.00,0.0183
789.00,0.0145
776.00,0.0123
763.00,0.0125
750.00,0.0098
737.00,0.0128
724.00,0.0109
711.00,0.0105
698.00,0.0102
685.00,0.0130
672.00,0.0146
659.00,0.0097
646.00,0.0095
633.00,0.0106
620.00,0.0093
607.00,0.0101
594.00,0.0099
581.00,0.0148
568.00,0.0073
555.00,0.0145
542.00,0.0124
529.00,0.0133
516.00,0.0093
503.00,0.0159
490.00,0.0287
477.00,0.0295
464.00,0.0273
451.00,0.0193
438.00,0.0170
425.00,0.0120
412.00,0.0110
400.00,0.0107