File: FTIR/Olivia/2025_07_10_Polystyrene_Std_OAG_scan2.csv
Created as New Dataset,Sample 808 By YargerLab Date Thursday, July 10 2025
cm-1,A
4000.00,0.0012
3987.00,0.0012
3974.00,0.0012
3961.00,0.0012
3948.00,0.0012
3935.00,0.0013
3922.00,0.0012
3909.00,0.0012
3896.00,0.0012
3883.00,0.0012
3870.00,0.0012
3857.00,0.0013
3844.00,0.0012
3831.00,0.0012
3818.00,0.0014
3805.00,0.0013
3792.00,0.0012
3779.00,0.0012
3766.00,0.0013
3753.00,0.0014
3740.00,0.0014
3727.00,0.0013
3714.00,0.0012
3701.00,0.0012
3688.00,0.0011
3675.00,0.0013
3662.00,0.0012
3649.00,0.0014
3636.00,0.0013
3623.00,0.0013
3610.00,0.0014
3597.00,0.0013
3584.00,0.0016
3571.00,0.0016
3558.00,0.0017
3545.00,0.0018
3532.00,0.0019
3519.00,0.0019
3506.00,0.0020
3493.00,0.0022
3480.00,0.0023
3467.00,0.0024
3454.00,0.0024
3441.00,0.0025
3428.00,0.0025
3415.00,0.0026
3402.00,0.0026
3389.00,0.0026
3376.00,0.0026
3363.00,0.0025
3350.00,0.0025
3337.00,0.0025
3324.00,0.0024
3311.00,0.0024
3298.00,0.0024
3285.00,0.0023
3272.00,0.0024
3259.00,0.0022
3246.00,0.0022
3233.00,0.0021
3220.00,0.0021
3207.00,0.0021
3194.00,0.0020
3181.00,0.0020
3168.00,0.0019
3155.00,0.0019
3142.00,0.0018
3129.00,0.0018
3116.00,0.0022
3103.00,0.0037
3090.00,0.0049
3077.00,0.0070
3064.00,0.0098
3051.00,0.0074
3038.00,0.0080
3025.00,0.0219
3012.00,0.0068
2999.00,0.0065
2986.00,0.0037
2973.00,0.0046
2960.00,0.0055
2947.00,0.0094
2934.00,0.0185
2921.00,0.0259
2908.00,0.0200
2895.00,0.0120
2882.00,0.0084
2869.00,0.0068
2856.00,0.0100
2843.00,0.0097
2830.00,0.0036
2817.00,0.0028
2804.00,0.0026
2791.00,0.0023
2778.00,0.0022
2765.00,0.0020
2752.00,0.0020
2739.00,0.0020
2726.00,0.0020
2713.00,0.0020
2700.00,0.0019
2687.00,0.0020
2674.00,0.0020
2661.00,0.0023
2648.00,0.0024
2635.00,0.0024
2622.00,0.0023
2609.00,0.0022
2596.00,0.0020
2583.00,0.0020
2570.00,0.0017
2557.00,0.0017
2544.00,0.0017
2531.00,0.0016
2518.00,0.0015
2505.00,0.0015
2492.00,0.0015
2479.00,0.0014
2466.00,0.0014
2453.00,0.0015
2440.00,0.0013
2427.00,0.0012
2414.00,0.0011
2401.00,0.0010
2388.00,0.0009
2375.00,0.0010
2362.00,0.0011
2349.00,0.0011
2336.00,0.0017
2323.00,0.0024
2310.00,0.0018
2297.00,0.0020
2284.00,0.0023
2271.00,0.0019
2258.00,0.0018
2245.00,0.0015
2232.00,0.0015
2219.00,0.0014
2206.00,0.0014
2193.00,0.0016
2180.00,0.0009
2167.00,0.0023
2154.00,-0.0014
2141.00,-0.0004
2128.00,-0.0003
2115.00,0.0009
2102.00,0.0009
2089.00,0.0007
2076.00,0.0011
2063.00,0.0007
2050.00,0.0018
2037.00,0.0012
2024.00,0.0002
2011.00,0.0003
1998.00,0.0009
1985.00,0.0016
1972.00,0.0004
1959.00,0.0013
1946.00,0.0030
1933.00,0.0016
1920.00,0.0009
1907.00,0.0008
1894.00,0.0016
1881.00,0.0025
1868.00,0.0031
1855.00,0.0016
1842.00,0.0011
1829.00,0.0015
1816.00,0.0022
1803.00,0.0037
1790.00,0.0023
1777.00,0.0019
1764.00,0.0022
1751.00,0.0034
1738.00,0.0041
1725.00,0.0034
1712.00,0.0029
1699.00,0.0027
1686.00,0.0028
1673.00,0.0033
1660.00,0.0032
1647.00,0.0028
1634.00,0.0029
1621.00,0.0033
1608.00,0.0090
1595.00,0.0118
1582.00,0.0095
1569.00,0.0030
1556.00,0.0029
1543.00,0.0039
1530.00,0.0029
1517.00,0.0028
1504.00,0.0052
1491.00,0.0513
1478.00,0.0068
1465.00,0.0070
1452.00,0.0568
1439.00,0.0217
1426.00,0.0080
1413.00,0.0070
1400.00,0.0064
1387.00,0.0087
1374.00,0.0135
1361.00,0.0125
1348.00,0.0112
1335.00,0.0100
1322.00,0.0104
1309.00,0.0106
1296.00,0.0086
1283.00,0.0079
1270.00,0.0065
1257.00,0.0060
1244.00,0.0063
1231.00,0.0060
1218.00,0.0062
1205.00,0.0077
1192.00,0.0095
1179.00,0.0123
1166.00,0.0084
1153.00,0.0141
1140.00,0.0167
1127.00,0.0111
1114.00,0.0088
1101.00,0.0084
1088.00,0.0100
1075.00,0.0154
1062.00,0.0154
1049.00,0.0110
1036.00,0.0147
1023.00,0.0242
1010.00,0.0136
997.00,0.0111
984.00,0.0124
971.00,0.0122
958.00,0.0122
945.00,0.0120
932.00,0.0091
919.00,0.0097
906.00,0.0218
893.00,0.0085
880.00,0.0061
867.00,0.0057
854.00,0.0059
841.00,0.0112
828.00,0.0055
815.00,0.0054
802.00,0.0062
789.00,0.0112
776.00,0.0273
763.00,0.0714
750.00,0.0926
737.00,0.0394
724.00,0.0116
711.00,0.0251
698.00,0.2559
685.00,0.0911
672.00,0.0413
659.00,0.0251
646.00,0.0161
633.00,0.0176
620.00,0.0213
607.00,0.0165
594.00,0.0183
581.00,0.0234
568.00,0.0388
555.00,0.0553
542.00,0.0871
529.00,0.0627
516.00,0.0318
503.00,0.0213
490.00,0.0170
477.00,0.0146
464.00,0.0131
451.00,0.0126
438.00,0.0114
425.00,0.0105
412.00,0.0104
400.00,0.0111