File: FTIR/Olivia/2025_06_06_Standard_post_Polystyrene_scan1.csv
Created as New Dataset,Sample 629 By YargerLab Date Friday, June 06 2025
cm-1,A
4000.00,0.0019
3987.00,0.0017
3974.00,0.0017
3961.00,0.0017
3948.00,0.0017
3935.00,0.0017
3922.00,0.0018
3909.00,0.0017
3896.00,0.0016
3883.00,0.0018
3870.00,0.0018
3857.00,0.0020
3844.00,0.0017
3831.00,0.0018
3818.00,0.0019
3805.00,0.0019
3792.00,0.0017
3779.00,0.0017
3766.00,0.0018
3753.00,0.0020
3740.00,0.0017
3727.00,0.0017
3714.00,0.0018
3701.00,0.0016
3688.00,0.0016
3675.00,0.0012
3662.00,0.0008
3649.00,0.0012
3636.00,0.0011
3623.00,0.0014
3610.00,0.0015
3597.00,0.0014
3584.00,0.0015
3571.00,0.0015
3558.00,0.0014
3545.00,0.0015
3532.00,0.0016
3519.00,0.0017
3506.00,0.0017
3493.00,0.0017
3480.00,0.0016
3467.00,0.0017
3454.00,0.0018
3441.00,0.0018
3428.00,0.0018
3415.00,0.0018
3402.00,0.0018
3389.00,0.0018
3376.00,0.0019
3363.00,0.0019
3350.00,0.0020
3337.00,0.0021
3324.00,0.0020
3311.00,0.0020
3298.00,0.0019
3285.00,0.0019
3272.00,0.0018
3259.00,0.0018
3246.00,0.0017
3233.00,0.0017
3220.00,0.0016
3207.00,0.0018
3194.00,0.0017
3181.00,0.0016
3168.00,0.0017
3155.00,0.0018
3142.00,0.0017
3129.00,0.0018
3116.00,0.0023
3103.00,0.0046
3090.00,0.0063
3077.00,0.0092
3064.00,0.0133
3051.00,0.0097
3038.00,0.0106
3025.00,0.0296
3012.00,0.0077
2999.00,0.0047
2986.00,-0.0010
2973.00,-0.0018
2960.00,0.0024
2947.00,0.0095
2934.00,0.0227
2921.00,0.0328
2908.00,0.0247
2895.00,0.0136
2882.00,0.0088
2869.00,0.0074
2856.00,0.0123
2843.00,0.0125
2830.00,0.0045
2817.00,0.0034
2804.00,0.0031
2791.00,0.0028
2778.00,0.0027
2765.00,0.0025
2752.00,0.0024
2739.00,0.0024
2726.00,0.0025
2713.00,0.0025
2700.00,0.0025
2687.00,0.0025
2674.00,0.0024
2661.00,0.0028
2648.00,0.0029
2635.00,0.0030
2622.00,0.0028
2609.00,0.0027
2596.00,0.0026
2583.00,0.0025
2570.00,0.0023
2557.00,0.0021
2544.00,0.0021
2531.00,0.0021
2518.00,0.0020
2505.00,0.0019
2492.00,0.0020
2479.00,0.0018
2466.00,0.0018
2453.00,0.0019
2440.00,0.0017
2427.00,0.0016
2414.00,0.0015
2401.00,0.0014
2388.00,0.0013
2375.00,0.0014
2362.00,0.0015
2349.00,0.0018
2336.00,0.0023
2323.00,0.0033
2310.00,0.0025
2297.00,0.0024
2284.00,0.0028
2271.00,0.0023
2258.00,0.0020
2245.00,0.0020
2232.00,0.0017
2219.00,0.0015
2206.00,0.0016
2193.00,0.0017
2180.00,0.0014
2167.00,0.0025
2154.00,-0.0010
2141.00,-0.0004
2128.00,-0.0002
2115.00,0.0012
2102.00,0.0011
2089.00,0.0010
2076.00,0.0012
2063.00,0.0007
2050.00,0.0017
2037.00,0.0011
2024.00,0.0005
2011.00,0.0003
1998.00,0.0005
1985.00,0.0019
1972.00,0.0006
1959.00,0.0018
1946.00,0.0043
1933.00,0.0026
1920.00,0.0014
1907.00,0.0011
1894.00,0.0021
1881.00,0.0036
1868.00,0.0041
1855.00,0.0021
1842.00,0.0014
1829.00,0.0019
1816.00,0.0030
1803.00,0.0048
1790.00,0.0030
1777.00,0.0024
1764.00,0.0026
1751.00,0.0043
1738.00,0.0046
1725.00,0.0039
1712.00,0.0039
1699.00,0.0044
1686.00,0.0045
1673.00,0.0043
1660.00,0.0039
1647.00,0.0032
1634.00,0.0030
1621.00,0.0038
1608.00,0.0114
1595.00,0.0147
1582.00,0.0116
1569.00,0.0033
1556.00,0.0031
1543.00,0.0049
1530.00,0.0052
1517.00,0.0035
1504.00,0.0071
1491.00,0.0655
1478.00,0.0083
1465.00,0.0074
1452.00,0.0718
1439.00,0.0264
1426.00,0.0080
1413.00,0.0051
1400.00,0.0038
1387.00,0.0071
1374.00,0.0130
1361.00,0.0133
1348.00,0.0125
1335.00,0.0112
1322.00,0.0122
1309.00,0.0132
1296.00,0.0103
1283.00,0.0094
1270.00,0.0066
1257.00,0.0052
1244.00,0.0059
1231.00,0.0071
1218.00,0.0079
1205.00,0.0091
1192.00,0.0109
1179.00,0.0132
1166.00,0.0064
1153.00,0.0123
1140.00,0.0045
1127.00,0.0048
1114.00,0.0077
1101.00,0.0081
1088.00,0.0089
1075.00,0.0154
1062.00,0.0156
1049.00,0.0106
1036.00,0.0157
1023.00,0.0277
1010.00,0.0145
997.00,0.0115
984.00,0.0130
971.00,0.0115
958.00,0.0103
945.00,0.0099
932.00,0.0078
919.00,0.0102
906.00,0.0248
893.00,0.0091
880.00,0.0065
867.00,0.0057
854.00,0.0063
841.00,0.0128
828.00,0.0055
815.00,0.0050
802.00,0.0061
789.00,0.0123
776.00,0.0316
763.00,0.0836
750.00,0.1082
737.00,0.0461
724.00,0.0125
711.00,0.0286
698.00,0.2990
685.00,0.1002
672.00,0.0451
659.00,0.0272
646.00,0.0173
633.00,0.0188
620.00,0.0229
607.00,0.0175
594.00,0.0192
581.00,0.0246
568.00,0.0418
555.00,0.0605
542.00,0.0959
529.00,0.0680
516.00,0.0343
503.00,0.0226
490.00,0.0170
477.00,0.0148
464.00,0.0135
451.00,0.0125
438.00,0.0119
425.00,0.0090
412.00,0.0089
400.00,0.0117