File: FTIR/Olivia/2025_08_06_1CBN_3PVP40_MP_Powder_Scan1.csv
Created as New Dataset,Sample 1085 By YargerLab Date Wednesday, August 06 2025
cm-1,A
4000.00,0.0117
3987.00,0.0116
3974.00,0.0117
3961.00,0.0116
3948.00,0.0116
3935.00,0.0116
3922.00,0.0116
3909.00,0.0116
3896.00,0.0115
3883.00,0.0114
3870.00,0.0115
3857.00,0.0115
3844.00,0.0115
3831.00,0.0114
3818.00,0.0113
3805.00,0.0113
3792.00,0.0114
3779.00,0.0113
3766.00,0.0113
3753.00,0.0113
3740.00,0.0113
3727.00,0.0111
3714.00,0.0111
3701.00,0.0111
3688.00,0.0112
3675.00,0.0114
3662.00,0.0118
3649.00,0.0121
3636.00,0.0127
3623.00,0.0136
3610.00,0.0146
3597.00,0.0157
3584.00,0.0173
3571.00,0.0189
3558.00,0.0207
3545.00,0.0224
3532.00,0.0237
3519.00,0.0251
3506.00,0.0261
3493.00,0.0273
3480.00,0.0288
3467.00,0.0306
3454.00,0.0324
3441.00,0.0345
3428.00,0.0370
3415.00,0.0399
3402.00,0.0415
3389.00,0.0404
3376.00,0.0379
3363.00,0.0356
3350.00,0.0338
3337.00,0.0329
3324.00,0.0327
3311.00,0.0328
3298.00,0.0335
3285.00,0.0345
3272.00,0.0349
3259.00,0.0359
3246.00,0.0363
3233.00,0.0361
3220.00,0.0354
3207.00,0.0338
3194.00,0.0314
3181.00,0.0292
3168.00,0.0269
3155.00,0.0247
3142.00,0.0227
3129.00,0.0213
3116.00,0.0202
3103.00,0.0189
3090.00,0.0186
3077.00,0.0182
3064.00,0.0179
3051.00,0.0179
3038.00,0.0181
3025.00,0.0180
3012.00,0.0180
2999.00,0.0224
2986.00,0.0301
2973.00,0.0410
2960.00,0.0514
2947.00,0.0444
2934.00,0.0593
2921.00,0.0664
2908.00,0.0477
2895.00,0.0398
2882.00,0.0371
2869.00,0.0411
2856.00,0.0523
2843.00,0.0341
2830.00,0.0246
2817.00,0.0209
2804.00,0.0193
2791.00,0.0181
2778.00,0.0173
2765.00,0.0169
2752.00,0.0168
2739.00,0.0170
2726.00,0.0173
2713.00,0.0168
2700.00,0.0165
2687.00,0.0162
2674.00,0.0160
2661.00,0.0166
2648.00,0.0167
2635.00,0.0163
2622.00,0.0158
2609.00,0.0156
2596.00,0.0158
2583.00,0.0159
2570.00,0.0156
2557.00,0.0154
2544.00,0.0151
2531.00,0.0150
2518.00,0.0147
2505.00,0.0145
2492.00,0.0143
2479.00,0.0142
2466.00,0.0140
2453.00,0.0142
2440.00,0.0139
2427.00,0.0139
2414.00,0.0139
2401.00,0.0137
2388.00,0.0136
2375.00,0.0132
2362.00,0.0132
2349.00,0.0134
2336.00,0.0138
2323.00,0.0150
2310.00,0.0138
2297.00,0.0142
2284.00,0.0146
2271.00,0.0139
2258.00,0.0136
2245.00,0.0135
2232.00,0.0136
2219.00,0.0134
2206.00,0.0135
2193.00,0.0135
2180.00,0.0133
2167.00,0.0143
2154.00,0.0107
2141.00,0.0116
2128.00,0.0120
2115.00,0.0132
2102.00,0.0127
2089.00,0.0129
2076.00,0.0130
2063.00,0.0125
2050.00,0.0129
2037.00,0.0124
2024.00,0.0117
2011.00,0.0115
1998.00,0.0112
1985.00,0.0124
1972.00,0.0109
1959.00,0.0108
1946.00,0.0116
1933.00,0.0113
1920.00,0.0118
1907.00,0.0129
1894.00,0.0124
1881.00,0.0117
1868.00,0.0120
1855.00,0.0118
1842.00,0.0119
1829.00,0.0118
1816.00,0.0114
1803.00,0.0121
1790.00,0.0119
1777.00,0.0125
1764.00,0.0125
1751.00,0.0134
1738.00,0.0136
1725.00,0.0162
1712.00,0.0207
1699.00,0.0355
1686.00,0.0735
1673.00,0.1169
1660.00,0.1442
1647.00,0.1452
1634.00,0.1097
1621.00,0.1223
1608.00,0.0849
1595.00,0.0512
1582.00,0.0705
1569.00,0.0472
1556.00,0.0301
1543.00,0.0270
1530.00,0.0247
1517.00,0.0275
1504.00,0.0362
1491.00,0.0550
1478.00,0.0325
1465.00,0.0776
1452.00,0.0679
1439.00,0.1005
1426.00,0.1293
1413.00,0.0928
1400.00,0.0862
1387.00,0.0653
1374.00,0.0639
1361.00,0.0731
1348.00,0.0563
1335.00,0.0466
1322.00,0.0578
1309.00,0.0565
1296.00,0.0948
1283.00,0.1423
1270.00,0.1187
1257.00,0.0786
1244.00,0.0758
1231.00,0.0931
1218.00,0.0781
1205.00,0.0634
1192.00,0.0822
1179.00,0.0523
1166.00,0.0533
1153.00,0.0765
1140.00,0.0428
1127.00,0.0837
1114.00,0.0511
1101.00,0.0625
1088.00,0.0416
1075.00,0.0427
1062.00,0.0548
1049.00,0.1049
1036.00,0.0628
1023.00,0.0857
1010.00,0.0500
997.00,0.0565
984.00,0.0397
971.00,0.0365
958.00,0.0341
945.00,0.0321
932.00,0.0416
919.00,0.0393
906.00,0.0325
893.00,0.0404
880.00,0.0352
867.00,0.0660
854.00,0.0585
841.00,0.0604
828.00,0.0568
815.00,0.0835
802.00,0.0366
789.00,0.0349
776.00,0.0404
763.00,0.0418
750.00,0.0480
737.00,0.0686
724.00,0.0613
711.00,0.0588
698.00,0.0629
685.00,0.0681
672.00,0.0809
659.00,0.0905
646.00,0.0931
633.00,0.0849
620.00,0.0893
607.00,0.0884
594.00,0.1020
581.00,0.1088
568.00,0.1106
555.00,0.1089
542.00,0.1095
529.00,0.1094
516.00,0.0944
503.00,0.0953
490.00,0.0968
477.00,0.0933
464.00,0.0911
451.00,0.0884
438.00,0.0858
425.00,0.0784
412.00,0.0816
400.00,0.0776