File: FTIR/Olivia/2025_06_18_Std_Polystyrene_scan1.csv
Created as New Dataset,Sample 692 By YargerLab Date Friday, June 13 2025
cm-1,A
4000.00,0.0024
3987.00,0.0024
3974.00,0.0023
3961.00,0.0023
3948.00,0.0023
3935.00,0.0023
3922.00,0.0022
3909.00,0.0023
3896.00,0.0021
3883.00,0.0021
3870.00,0.0021
3857.00,0.0020
3844.00,0.0022
3831.00,0.0022
3818.00,0.0021
3805.00,0.0022
3792.00,0.0023
3779.00,0.0023
3766.00,0.0022
3753.00,0.0020
3740.00,0.0019
3727.00,0.0021
3714.00,0.0021
3701.00,0.0021
3688.00,0.0020
3675.00,0.0019
3662.00,0.0021
3649.00,0.0020
3636.00,0.0021
3623.00,0.0020
3610.00,0.0019
3597.00,0.0020
3584.00,0.0021
3571.00,0.0021
3558.00,0.0022
3545.00,0.0022
3532.00,0.0024
3519.00,0.0023
3506.00,0.0024
3493.00,0.0024
3480.00,0.0026
3467.00,0.0026
3454.00,0.0026
3441.00,0.0026
3428.00,0.0027
3415.00,0.0026
3402.00,0.0027
3389.00,0.0027
3376.00,0.0026
3363.00,0.0026
3350.00,0.0026
3337.00,0.0026
3324.00,0.0026
3311.00,0.0026
3298.00,0.0026
3285.00,0.0025
3272.00,0.0026
3259.00,0.0025
3246.00,0.0025
3233.00,0.0025
3220.00,0.0024
3207.00,0.0026
3194.00,0.0025
3181.00,0.0024
3168.00,0.0025
3155.00,0.0025
3142.00,0.0024
3129.00,0.0025
3116.00,0.0029
3103.00,0.0052
3090.00,0.0069
3077.00,0.0097
3064.00,0.0139
3051.00,0.0103
3038.00,0.0112
3025.00,0.0308
3012.00,0.0089
2999.00,0.0083
2986.00,0.0045
2973.00,0.0047
2960.00,0.0071
2947.00,0.0128
2934.00,0.0261
2921.00,0.0366
2908.00,0.0281
2895.00,0.0168
2882.00,0.0118
2869.00,0.0096
2856.00,0.0143
2843.00,0.0138
2830.00,0.0054
2817.00,0.0043
2804.00,0.0038
2791.00,0.0035
2778.00,0.0034
2765.00,0.0032
2752.00,0.0031
2739.00,0.0030
2726.00,0.0031
2713.00,0.0031
2700.00,0.0030
2687.00,0.0030
2674.00,0.0030
2661.00,0.0033
2648.00,0.0036
2635.00,0.0036
2622.00,0.0033
2609.00,0.0032
2596.00,0.0031
2583.00,0.0030
2570.00,0.0028
2557.00,0.0027
2544.00,0.0026
2531.00,0.0025
2518.00,0.0025
2505.00,0.0025
2492.00,0.0025
2479.00,0.0024
2466.00,0.0023
2453.00,0.0024
2440.00,0.0021
2427.00,0.0020
2414.00,0.0020
2401.00,0.0018
2388.00,0.0018
2375.00,0.0019
2362.00,0.0021
2349.00,0.0024
2336.00,0.0029
2323.00,0.0037
2310.00,0.0031
2297.00,0.0029
2284.00,0.0032
2271.00,0.0027
2258.00,0.0025
2245.00,0.0022
2232.00,0.0022
2219.00,0.0022
2206.00,0.0019
2193.00,0.0021
2180.00,0.0016
2167.00,0.0027
2154.00,-0.0005
2141.00,0.0000
2128.00,0.0002
2115.00,0.0017
2102.00,0.0016
2089.00,0.0016
2076.00,0.0017
2063.00,0.0012
2050.00,0.0021
2037.00,0.0020
2024.00,0.0003
2011.00,0.0011
1998.00,0.0014
1985.00,0.0025
1972.00,0.0011
1959.00,0.0023
1946.00,0.0044
1933.00,0.0029
1920.00,0.0017
1907.00,0.0017
1894.00,0.0026
1881.00,0.0039
1868.00,0.0045
1855.00,0.0024
1842.00,0.0018
1829.00,0.0023
1816.00,0.0034
1803.00,0.0053
1790.00,0.0034
1777.00,0.0029
1764.00,0.0032
1751.00,0.0054
1738.00,0.0062
1725.00,0.0049
1712.00,0.0039
1699.00,0.0036
1686.00,0.0040
1673.00,0.0044
1660.00,0.0043
1647.00,0.0036
1634.00,0.0035
1621.00,0.0044
1608.00,0.0126
1595.00,0.0162
1582.00,0.0129
1569.00,0.0044
1556.00,0.0041
1543.00,0.0055
1530.00,0.0044
1517.00,0.0039
1504.00,0.0070
1491.00,0.0688
1478.00,0.0090
1465.00,0.0089
1452.00,0.0774
1439.00,0.0281
1426.00,0.0089
1413.00,0.0066
1400.00,0.0065
1387.00,0.0107
1374.00,0.0167
1361.00,0.0155
1348.00,0.0139
1335.00,0.0125
1322.00,0.0133
1309.00,0.0136
1296.00,0.0110
1283.00,0.0100
1270.00,0.0080
1257.00,0.0074
1244.00,0.0080
1231.00,0.0076
1218.00,0.0077
1205.00,0.0095
1192.00,0.0118
1179.00,0.0151
1166.00,0.0092
1153.00,0.0157
1140.00,0.0068
1127.00,0.0064
1114.00,0.0089
1101.00,0.0091
1088.00,0.0112
1075.00,0.0181
1062.00,0.0178
1049.00,0.0119
1036.00,0.0168
1023.00,0.0290
1010.00,0.0154
997.00,0.0122
984.00,0.0139
971.00,0.0137
958.00,0.0132
945.00,0.0126
932.00,0.0093
919.00,0.0109
906.00,0.0263
893.00,0.0097
880.00,0.0070
867.00,0.0062
854.00,0.0068
841.00,0.0137
828.00,0.0062
815.00,0.0061
802.00,0.0071
789.00,0.0133
776.00,0.0336
763.00,0.0893
750.00,0.1153
737.00,0.0483
724.00,0.0134
711.00,0.0302
698.00,0.3263
685.00,0.1050
672.00,0.0472
659.00,0.0280
646.00,0.0178
633.00,0.0197
620.00,0.0239
607.00,0.0185
594.00,0.0203
581.00,0.0263
568.00,0.0445
555.00,0.0646
542.00,0.1026
529.00,0.0712
516.00,0.0353
503.00,0.0232
490.00,0.0174
477.00,0.0147
464.00,0.0142
451.00,0.0129
438.00,0.0121
425.00,0.0104
412.00,0.0112
400.00,0.0089