File: FTIR/Olivia/2025_08_04_1CBN_3PVP29kDa_MortPest_powder_scan2.csv
Created as New Dataset,Sample 1040 By YargerLab Date Monday, August 04 2025
cm-1,A
4000.00,0.0067
3987.00,0.0068
3974.00,0.0068
3961.00,0.0068
3948.00,0.0068
3935.00,0.0068
3922.00,0.0068
3909.00,0.0068
3896.00,0.0068
3883.00,0.0068
3870.00,0.0068
3857.00,0.0068
3844.00,0.0068
3831.00,0.0068
3818.00,0.0069
3805.00,0.0068
3792.00,0.0067
3779.00,0.0068
3766.00,0.0068
3753.00,0.0069
3740.00,0.0069
3727.00,0.0067
3714.00,0.0067
3701.00,0.0066
3688.00,0.0068
3675.00,0.0070
3662.00,0.0072
3649.00,0.0077
3636.00,0.0081
3623.00,0.0088
3610.00,0.0097
3597.00,0.0107
3584.00,0.0119
3571.00,0.0131
3558.00,0.0146
3545.00,0.0161
3532.00,0.0173
3519.00,0.0184
3506.00,0.0193
3493.00,0.0203
3480.00,0.0216
3467.00,0.0229
3454.00,0.0244
3441.00,0.0261
3428.00,0.0281
3415.00,0.0304
3402.00,0.0316
3389.00,0.0308
3376.00,0.0290
3363.00,0.0273
3350.00,0.0260
3337.00,0.0253
3324.00,0.0252
3311.00,0.0253
3298.00,0.0258
3285.00,0.0266
3272.00,0.0268
3259.00,0.0274
3246.00,0.0276
3233.00,0.0272
3220.00,0.0265
3207.00,0.0249
3194.00,0.0230
3181.00,0.0211
3168.00,0.0193
3155.00,0.0175
3142.00,0.0160
3129.00,0.0149
3116.00,0.0140
3103.00,0.0130
3090.00,0.0127
3077.00,0.0124
3064.00,0.0121
3051.00,0.0120
3038.00,0.0122
3025.00,0.0121
3012.00,0.0121
2999.00,0.0154
2986.00,0.0212
2973.00,0.0284
2960.00,0.0356
2947.00,0.0307
2934.00,0.0407
2921.00,0.0443
2908.00,0.0317
2895.00,0.0266
2882.00,0.0250
2869.00,0.0276
2856.00,0.0345
2843.00,0.0217
2830.00,0.0156
2817.00,0.0131
2804.00,0.0121
2791.00,0.0113
2778.00,0.0108
2765.00,0.0106
2752.00,0.0105
2739.00,0.0107
2726.00,0.0109
2713.00,0.0105
2700.00,0.0103
2687.00,0.0101
2674.00,0.0100
2661.00,0.0104
2648.00,0.0105
2635.00,0.0103
2622.00,0.0099
2609.00,0.0098
2596.00,0.0099
2583.00,0.0100
2570.00,0.0098
2557.00,0.0095
2544.00,0.0093
2531.00,0.0094
2518.00,0.0091
2505.00,0.0090
2492.00,0.0089
2479.00,0.0088
2466.00,0.0087
2453.00,0.0088
2440.00,0.0087
2427.00,0.0086
2414.00,0.0085
2401.00,0.0085
2388.00,0.0084
2375.00,0.0081
2362.00,0.0081
2349.00,0.0083
2336.00,0.0086
2323.00,0.0094
2310.00,0.0088
2297.00,0.0091
2284.00,0.0094
2271.00,0.0089
2258.00,0.0084
2245.00,0.0085
2232.00,0.0086
2219.00,0.0084
2206.00,0.0084
2193.00,0.0086
2180.00,0.0081
2167.00,0.0093
2154.00,0.0064
2141.00,0.0070
2128.00,0.0074
2115.00,0.0083
2102.00,0.0081
2089.00,0.0080
2076.00,0.0083
2063.00,0.0078
2050.00,0.0081
2037.00,0.0076
2024.00,0.0069
2011.00,0.0066
1998.00,0.0070
1985.00,0.0075
1972.00,0.0063
1959.00,0.0062
1946.00,0.0070
1933.00,0.0069
1920.00,0.0072
1907.00,0.0079
1894.00,0.0076
1881.00,0.0073
1868.00,0.0074
1855.00,0.0074
1842.00,0.0074
1829.00,0.0074
1816.00,0.0072
1803.00,0.0076
1790.00,0.0076
1777.00,0.0080
1764.00,0.0081
1751.00,0.0086
1738.00,0.0088
1725.00,0.0109
1712.00,0.0140
1699.00,0.0235
1686.00,0.0479
1673.00,0.0785
1660.00,0.1017
1647.00,0.1068
1634.00,0.0857
1621.00,0.0870
1608.00,0.0599
1595.00,0.0367
1582.00,0.0480
1569.00,0.0317
1556.00,0.0205
1543.00,0.0181
1530.00,0.0170
1517.00,0.0186
1504.00,0.0251
1491.00,0.0377
1478.00,0.0227
1465.00,0.0546
1452.00,0.0477
1439.00,0.0710
1426.00,0.0864
1413.00,0.0620
1400.00,0.0568
1387.00,0.0434
1374.00,0.0435
1361.00,0.0477
1348.00,0.0368
1335.00,0.0314
1322.00,0.0401
1309.00,0.0389
1296.00,0.0656
1283.00,0.0948
1270.00,0.0821
1257.00,0.0544
1244.00,0.0515
1231.00,0.0611
1218.00,0.0530
1205.00,0.0434
1192.00,0.0528
1179.00,0.0360
1166.00,0.0369
1153.00,0.0500
1140.00,0.0292
1127.00,0.0525
1114.00,0.0335
1101.00,0.0399
1088.00,0.0285
1075.00,0.0299
1062.00,0.0379
1049.00,0.0657
1036.00,0.0401
1023.00,0.0524
1010.00,0.0328
997.00,0.0364
984.00,0.0272
971.00,0.0249
958.00,0.0232
945.00,0.0222
932.00,0.0281
919.00,0.0264
906.00,0.0229
893.00,0.0277
880.00,0.0249
867.00,0.0421
854.00,0.0390
841.00,0.0410
828.00,0.0385
815.00,0.0522
802.00,0.0276
789.00,0.0274
776.00,0.0307
763.00,0.0326
750.00,0.0379
737.00,0.0508
724.00,0.0465
711.00,0.0448
698.00,0.0477
685.00,0.0521
672.00,0.0598
659.00,0.0673
646.00,0.0717
633.00,0.0668
620.00,0.0683
607.00,0.0682
594.00,0.0752
581.00,0.0815
568.00,0.0834
555.00,0.0816
542.00,0.0810
529.00,0.0805
516.00,0.0737
503.00,0.0734
490.00,0.0738
477.00,0.0731
464.00,0.0716
451.00,0.0707
438.00,0.0689
425.00,0.0669
412.00,0.0661
400.00,0.0660