File: FTIR/Olivia/2025_07_28_Polystyrene_Std_scan3.csv
Created as New Dataset,Sample 934 By YargerLab Date Monday, July 28 2025
cm-1,A
4000.00,0.0019
3987.00,0.0018
3974.00,0.0019
3961.00,0.0018
3948.00,0.0017
3935.00,0.0018
3922.00,0.0018
3909.00,0.0018
3896.00,0.0017
3883.00,0.0016
3870.00,0.0016
3857.00,0.0018
3844.00,0.0016
3831.00,0.0016
3818.00,0.0017
3805.00,0.0017
3792.00,0.0018
3779.00,0.0017
3766.00,0.0017
3753.00,0.0016
3740.00,0.0014
3727.00,0.0015
3714.00,0.0015
3701.00,0.0016
3688.00,0.0014
3675.00,0.0015
3662.00,0.0015
3649.00,0.0014
3636.00,0.0015
3623.00,0.0015
3610.00,0.0013
3597.00,0.0015
3584.00,0.0015
3571.00,0.0015
3558.00,0.0017
3545.00,0.0017
3532.00,0.0018
3519.00,0.0019
3506.00,0.0020
3493.00,0.0020
3480.00,0.0021
3467.00,0.0021
3454.00,0.0022
3441.00,0.0022
3428.00,0.0021
3415.00,0.0021
3402.00,0.0020
3389.00,0.0020
3376.00,0.0020
3363.00,0.0019
3350.00,0.0019
3337.00,0.0019
3324.00,0.0018
3311.00,0.0018
3298.00,0.0018
3285.00,0.0018
3272.00,0.0017
3259.00,0.0017
3246.00,0.0016
3233.00,0.0016
3220.00,0.0016
3207.00,0.0017
3194.00,0.0017
3181.00,0.0016
3168.00,0.0018
3155.00,0.0017
3142.00,0.0016
3129.00,0.0017
3116.00,0.0023
3103.00,0.0048
3090.00,0.0071
3077.00,0.0097
3064.00,0.0148
3051.00,0.0104
3038.00,0.0120
3025.00,0.0325
3012.00,0.0088
2999.00,0.0079
2986.00,0.0036
2973.00,0.0036
2960.00,0.0060
2947.00,0.0129
2934.00,0.0272
2921.00,0.0375
2908.00,0.0287
2895.00,0.0167
2882.00,0.0115
2869.00,0.0091
2856.00,0.0138
2843.00,0.0133
2830.00,0.0048
2817.00,0.0037
2804.00,0.0034
2791.00,0.0030
2778.00,0.0029
2765.00,0.0026
2752.00,0.0026
2739.00,0.0025
2726.00,0.0025
2713.00,0.0025
2700.00,0.0025
2687.00,0.0025
2674.00,0.0025
2661.00,0.0029
2648.00,0.0030
2635.00,0.0032
2622.00,0.0029
2609.00,0.0028
2596.00,0.0026
2583.00,0.0025
2570.00,0.0023
2557.00,0.0021
2544.00,0.0021
2531.00,0.0021
2518.00,0.0020
2505.00,0.0019
2492.00,0.0019
2479.00,0.0018
2466.00,0.0018
2453.00,0.0019
2440.00,0.0017
2427.00,0.0014
2414.00,0.0014
2401.00,0.0012
2388.00,0.0011
2375.00,0.0012
2362.00,0.0014
2349.00,0.0017
2336.00,0.0022
2323.00,0.0032
2310.00,0.0025
2297.00,0.0023
2284.00,0.0026
2271.00,0.0020
2258.00,0.0019
2245.00,0.0016
2232.00,0.0016
2219.00,0.0014
2206.00,0.0013
2193.00,0.0017
2180.00,0.0011
2167.00,0.0020
2154.00,-0.0018
2141.00,-0.0010
2128.00,-0.0004
2115.00,0.0009
2102.00,0.0009
2089.00,0.0008
2076.00,0.0011
2063.00,0.0006
2050.00,0.0014
2037.00,0.0009
2024.00,0.0001
2011.00,0.0003
1998.00,0.0001
1985.00,0.0019
1972.00,0.0003
1959.00,0.0017
1946.00,0.0040
1933.00,0.0024
1920.00,0.0010
1907.00,0.0010
1894.00,0.0021
1881.00,0.0034
1868.00,0.0042
1855.00,0.0019
1842.00,0.0011
1829.00,0.0017
1816.00,0.0029
1803.00,0.0049
1790.00,0.0028
1777.00,0.0023
1764.00,0.0027
1751.00,0.0049
1738.00,0.0061
1725.00,0.0049
1712.00,0.0038
1699.00,0.0032
1686.00,0.0031
1673.00,0.0034
1660.00,0.0026
1647.00,0.0021
1634.00,0.0023
1621.00,0.0027
1608.00,0.0118
1595.00,0.0148
1582.00,0.0114
1569.00,0.0030
1556.00,0.0029
1543.00,0.0044
1530.00,0.0030
1517.00,0.0028
1504.00,0.0060
1491.00,0.0662
1478.00,0.0079
1465.00,0.0076
1452.00,0.0764
1439.00,0.0262
1426.00,0.0073
1413.00,0.0053
1400.00,0.0048
1387.00,0.0094
1374.00,0.0153
1361.00,0.0143
1348.00,0.0129
1335.00,0.0117
1322.00,0.0123
1309.00,0.0125
1296.00,0.0098
1283.00,0.0088
1270.00,0.0069
1257.00,0.0062
1244.00,0.0067
1231.00,0.0064
1218.00,0.0067
1205.00,0.0087
1192.00,0.0108
1179.00,0.0140
1166.00,0.0082
1153.00,0.0140
1140.00,0.0057
1127.00,0.0051
1114.00,0.0075
1101.00,0.0075
1088.00,0.0094
1075.00,0.0161
1062.00,0.0153
1049.00,0.0101
1036.00,0.0152
1023.00,0.0256
1010.00,0.0134
997.00,0.0105
984.00,0.0123
971.00,0.0119
958.00,0.0112
945.00,0.0108
932.00,0.0079
919.00,0.0095
906.00,0.0241
893.00,0.0083
880.00,0.0058
867.00,0.0050
854.00,0.0057
841.00,0.0117
828.00,0.0048
815.00,0.0045
802.00,0.0054
789.00,0.0114
776.00,0.0307
763.00,0.0816
750.00,0.1060
737.00,0.0439
724.00,0.0115
711.00,0.0279
698.00,0.2613
685.00,0.0936
672.00,0.0414
659.00,0.0242
646.00,0.0156
633.00,0.0173
620.00,0.0211
607.00,0.0161
594.00,0.0180
581.00,0.0236
568.00,0.0402
555.00,0.0581
542.00,0.0916
529.00,0.0633
516.00,0.0308
503.00,0.0201
490.00,0.0151
477.00,0.0127
464.00,0.0118
451.00,0.0114
438.00,0.0099
425.00,0.0100
412.00,0.0090
400.00,0.0043