File: FTIR/Olivia/2025_08_05_Polystyrene_film_scan1.csv
Created as New Dataset,Sample 1066 By YargerLab Date Monday, August 04 2025
cm-1,A
4000.00,0.0004
3987.00,0.0004
3974.00,0.0003
3961.00,0.0004
3948.00,0.0003
3935.00,0.0003
3922.00,0.0003
3909.00,0.0004
3896.00,0.0002
3883.00,0.0003
3870.00,0.0002
3857.00,0.0002
3844.00,0.0002
3831.00,0.0003
3818.00,0.0001
3805.00,0.0002
3792.00,0.0003
3779.00,0.0004
3766.00,0.0003
3753.00,0.0001
3740.00,0.0001
3727.00,0.0003
3714.00,0.0003
3701.00,0.0003
3688.00,0.0001
3675.00,0.0001
3662.00,0.0003
3649.00,-0.0000
3636.00,0.0002
3623.00,0.0002
3610.00,0.0002
3597.00,0.0003
3584.00,0.0003
3571.00,0.0005
3558.00,0.0005
3545.00,0.0005
3532.00,0.0006
3519.00,0.0007
3506.00,0.0007
3493.00,0.0008
3480.00,0.0009
3467.00,0.0009
3454.00,0.0009
3441.00,0.0010
3428.00,0.0010
3415.00,0.0010
3402.00,0.0010
3389.00,0.0010
3376.00,0.0010
3363.00,0.0010
3350.00,0.0010
3337.00,0.0010
3324.00,0.0009
3311.00,0.0010
3298.00,0.0009
3285.00,0.0009
3272.00,0.0009
3259.00,0.0009
3246.00,0.0008
3233.00,0.0007
3220.00,0.0007
3207.00,0.0006
3194.00,0.0007
3181.00,0.0006
3168.00,0.0006
3155.00,0.0006
3142.00,0.0005
3129.00,0.0005
3116.00,0.0007
3103.00,0.0016
3090.00,0.0021
3077.00,0.0033
3064.00,0.0045
3051.00,0.0035
3038.00,0.0036
3025.00,0.0105
3012.00,0.0029
2999.00,0.0027
2986.00,0.0015
2973.00,0.0022
2960.00,0.0027
2947.00,0.0043
2934.00,0.0088
2921.00,0.0124
2908.00,0.0095
2895.00,0.0057
2882.00,0.0039
2869.00,0.0030
2856.00,0.0044
2843.00,0.0044
2830.00,0.0014
2817.00,0.0009
2804.00,0.0009
2791.00,0.0007
2778.00,0.0007
2765.00,0.0006
2752.00,0.0006
2739.00,0.0006
2726.00,0.0006
2713.00,0.0006
2700.00,0.0006
2687.00,0.0006
2674.00,0.0006
2661.00,0.0009
2648.00,0.0011
2635.00,0.0011
2622.00,0.0010
2609.00,0.0009
2596.00,0.0008
2583.00,0.0007
2570.00,0.0007
2557.00,0.0006
2544.00,0.0005
2531.00,0.0004
2518.00,0.0004
2505.00,0.0005
2492.00,0.0003
2479.00,0.0003
2466.00,0.0003
2453.00,0.0004
2440.00,0.0003
2427.00,0.0001
2414.00,0.0001
2401.00,-0.0000
2388.00,-0.0000
2375.00,-0.0001
2362.00,0.0001
2349.00,0.0003
2336.00,0.0006
2323.00,0.0017
2310.00,0.0009
2297.00,0.0010
2284.00,0.0012
2271.00,0.0009
2258.00,0.0007
2245.00,0.0005
2232.00,0.0005
2219.00,0.0003
2206.00,0.0004
2193.00,0.0006
2180.00,-0.0000
2167.00,0.0012
2154.00,-0.0023
2141.00,-0.0015
2128.00,-0.0012
2115.00,0.0000
2102.00,0.0001
2089.00,-0.0002
2076.00,0.0002
2063.00,-0.0002
2050.00,0.0009
2037.00,0.0003
2024.00,-0.0005
2011.00,-0.0003
1998.00,-0.0002
1985.00,0.0004
1972.00,-0.0011
1959.00,-0.0006
1946.00,0.0005
1933.00,0.0001
1920.00,-0.0003
1907.00,-0.0004
1894.00,0.0001
1881.00,0.0007
1868.00,0.0008
1855.00,0.0001
1842.00,-0.0002
1829.00,0.0003
1816.00,0.0004
1803.00,0.0013
1790.00,0.0007
1777.00,0.0006
1764.00,0.0008
1751.00,0.0015
1738.00,0.0016
1725.00,0.0013
1712.00,0.0011
1699.00,0.0009
1686.00,0.0012
1673.00,0.0021
1660.00,0.0023
1647.00,0.0015
1634.00,0.0011
1621.00,0.0013
1608.00,0.0041
1595.00,0.0057
1582.00,0.0044
1569.00,0.0012
1556.00,0.0012
1543.00,0.0018
1530.00,0.0013
1517.00,0.0013
1504.00,0.0024
1491.00,0.0265
1478.00,0.0034
1465.00,0.0037
1452.00,0.0281
1439.00,0.0108
1426.00,0.0032
1413.00,0.0024
1400.00,0.0024
1387.00,0.0041
1374.00,0.0066
1361.00,0.0059
1348.00,0.0052
1335.00,0.0047
1322.00,0.0051
1309.00,0.0053
1296.00,0.0045
1283.00,0.0040
1270.00,0.0031
1257.00,0.0028
1244.00,0.0029
1231.00,0.0028
1218.00,0.0029
1205.00,0.0038
1192.00,0.0048
1179.00,0.0062
1166.00,0.0040
1153.00,0.0068
1140.00,0.0031
1127.00,0.0031
1114.00,0.0039
1101.00,0.0041
1088.00,0.0049
1075.00,0.0079
1062.00,0.0077
1049.00,0.0050
1036.00,0.0070
1023.00,0.0121
1010.00,0.0065
997.00,0.0052
984.00,0.0061
971.00,0.0060
958.00,0.0063
945.00,0.0063
932.00,0.0044
919.00,0.0049
906.00,0.0115
893.00,0.0042
880.00,0.0030
867.00,0.0027
854.00,0.0030
841.00,0.0059
828.00,0.0027
815.00,0.0029
802.00,0.0031
789.00,0.0060
776.00,0.0151
763.00,0.0387
750.00,0.0499
737.00,0.0218
724.00,0.0060
711.00,0.0140
698.00,0.1334
685.00,0.0529
672.00,0.0237
659.00,0.0143
646.00,0.0088
633.00,0.0097
620.00,0.0117
607.00,0.0090
594.00,0.0101
581.00,0.0132
568.00,0.0218
555.00,0.0317
542.00,0.0499
529.00,0.0371
516.00,0.0185
503.00,0.0129
490.00,0.0102
477.00,0.0085
464.00,0.0083
451.00,0.0071
438.00,0.0076
425.00,0.0075
412.00,0.0082
400.00,0.0076