File: FTIR/Olivia/2025_07_21_Polystyrene_Std_scan3.csv
Created as New Dataset,Sample 842 By YargerLab Date Monday, July 21 2025
cm-1,A
4000.00,0.0008
3987.00,0.0008
3974.00,0.0008
3961.00,0.0008
3948.00,0.0008
3935.00,0.0008
3922.00,0.0007
3909.00,0.0007
3896.00,0.0007
3883.00,0.0007
3870.00,0.0007
3857.00,0.0008
3844.00,0.0008
3831.00,0.0008
3818.00,0.0007
3805.00,0.0009
3792.00,0.0008
3779.00,0.0008
3766.00,0.0008
3753.00,0.0008
3740.00,0.0008
3727.00,0.0007
3714.00,0.0007
3701.00,0.0007
3688.00,0.0007
3675.00,0.0007
3662.00,0.0006
3649.00,0.0007
3636.00,0.0007
3623.00,0.0008
3610.00,0.0007
3597.00,0.0007
3584.00,0.0008
3571.00,0.0009
3558.00,0.0009
3545.00,0.0010
3532.00,0.0011
3519.00,0.0011
3506.00,0.0012
3493.00,0.0013
3480.00,0.0013
3467.00,0.0014
3454.00,0.0014
3441.00,0.0014
3428.00,0.0014
3415.00,0.0014
3402.00,0.0014
3389.00,0.0014
3376.00,0.0014
3363.00,0.0014
3350.00,0.0014
3337.00,0.0014
3324.00,0.0014
3311.00,0.0014
3298.00,0.0014
3285.00,0.0013
3272.00,0.0013
3259.00,0.0013
3246.00,0.0013
3233.00,0.0013
3220.00,0.0013
3207.00,0.0013
3194.00,0.0013
3181.00,0.0013
3168.00,0.0014
3155.00,0.0014
3142.00,0.0013
3129.00,0.0014
3116.00,0.0017
3103.00,0.0034
3090.00,0.0045
3077.00,0.0067
3064.00,0.0094
3051.00,0.0071
3038.00,0.0077
3025.00,0.0215
3012.00,0.0059
2999.00,0.0054
2986.00,0.0025
2973.00,0.0028
2960.00,0.0046
2947.00,0.0089
2934.00,0.0183
2921.00,0.0257
2908.00,0.0195
2895.00,0.0114
2882.00,0.0079
2869.00,0.0063
2856.00,0.0096
2843.00,0.0093
2830.00,0.0032
2817.00,0.0024
2804.00,0.0022
2791.00,0.0020
2778.00,0.0018
2765.00,0.0017
2752.00,0.0016
2739.00,0.0016
2726.00,0.0017
2713.00,0.0016
2700.00,0.0016
2687.00,0.0017
2674.00,0.0016
2661.00,0.0020
2648.00,0.0021
2635.00,0.0021
2622.00,0.0019
2609.00,0.0019
2596.00,0.0018
2583.00,0.0017
2570.00,0.0015
2557.00,0.0014
2544.00,0.0014
2531.00,0.0013
2518.00,0.0012
2505.00,0.0012
2492.00,0.0012
2479.00,0.0012
2466.00,0.0011
2453.00,0.0013
2440.00,0.0010
2427.00,0.0009
2414.00,0.0009
2401.00,0.0007
2388.00,0.0008
2375.00,0.0008
2362.00,0.0009
2349.00,0.0014
2336.00,0.0016
2323.00,0.0025
2310.00,0.0019
2297.00,0.0018
2284.00,0.0021
2271.00,0.0017
2258.00,0.0015
2245.00,0.0013
2232.00,0.0012
2219.00,0.0010
2206.00,0.0008
2193.00,0.0010
2180.00,0.0010
2167.00,0.0017
2154.00,-0.0013
2141.00,-0.0008
2128.00,-0.0005
2115.00,0.0007
2102.00,0.0008
2089.00,0.0006
2076.00,0.0010
2063.00,0.0006
2050.00,0.0015
2037.00,0.0005
2024.00,0.0003
2011.00,0.0004
1998.00,0.0002
1985.00,0.0016
1972.00,-0.0000
1959.00,0.0009
1946.00,0.0026
1933.00,0.0016
1920.00,0.0007
1907.00,0.0007
1894.00,0.0013
1881.00,0.0025
1868.00,0.0029
1855.00,0.0014
1842.00,0.0009
1829.00,0.0013
1816.00,0.0020
1803.00,0.0035
1790.00,0.0023
1777.00,0.0021
1764.00,0.0025
1751.00,0.0039
1738.00,0.0044
1725.00,0.0037
1712.00,0.0033
1699.00,0.0030
1686.00,0.0033
1673.00,0.0038
1660.00,0.0038
1647.00,0.0032
1634.00,0.0031
1621.00,0.0035
1608.00,0.0091
1595.00,0.0119
1582.00,0.0094
1569.00,0.0030
1556.00,0.0029
1543.00,0.0041
1530.00,0.0030
1517.00,0.0028
1504.00,0.0052
1491.00,0.0513
1478.00,0.0068
1465.00,0.0070
1452.00,0.0564
1439.00,0.0214
1426.00,0.0069
1413.00,0.0052
1400.00,0.0050
1387.00,0.0080
1374.00,0.0126
1361.00,0.0119
1348.00,0.0107
1335.00,0.0098
1322.00,0.0104
1309.00,0.0106
1296.00,0.0087
1283.00,0.0081
1270.00,0.0064
1257.00,0.0058
1244.00,0.0062
1231.00,0.0061
1218.00,0.0064
1205.00,0.0080
1192.00,0.0097
1179.00,0.0122
1166.00,0.0077
1153.00,0.0125
1140.00,0.0058
1127.00,0.0056
1114.00,0.0075
1101.00,0.0077
1088.00,0.0093
1075.00,0.0148
1062.00,0.0145
1049.00,0.0101
1036.00,0.0138
1023.00,0.0231
1010.00,0.0127
997.00,0.0102
984.00,0.0117
971.00,0.0115
958.00,0.0109
945.00,0.0107
932.00,0.0082
919.00,0.0095
906.00,0.0217
893.00,0.0085
880.00,0.0061
867.00,0.0055
854.00,0.0062
841.00,0.0115
828.00,0.0056
815.00,0.0054
802.00,0.0060
789.00,0.0111
776.00,0.0275
763.00,0.0718
750.00,0.0929
737.00,0.0395
724.00,0.0112
711.00,0.0250
698.00,0.2578
685.00,0.0938
672.00,0.0420
659.00,0.0253
646.00,0.0159
633.00,0.0176
620.00,0.0212
607.00,0.0166
594.00,0.0182
581.00,0.0230
568.00,0.0386
555.00,0.0556
542.00,0.0877
529.00,0.0634
516.00,0.0319
503.00,0.0218
490.00,0.0170
477.00,0.0143
464.00,0.0137
451.00,0.0126
438.00,0.0113
425.00,0.0105
412.00,0.0102
400.00,0.0108