File: FTIR/Olivia/2025_08_01_1CBN_3PVP40_mortar_dry_scan2.csv
Created as New Dataset,Sample 1024 By YargerLab Date Friday, August 01 2025
cm-1,A
4000.00,0.0108
3987.00,0.0108
3974.00,0.0109
3961.00,0.0108
3948.00,0.0108
3935.00,0.0107
3922.00,0.0107
3909.00,0.0108
3896.00,0.0107
3883.00,0.0106
3870.00,0.0106
3857.00,0.0106
3844.00,0.0107
3831.00,0.0107
3818.00,0.0106
3805.00,0.0106
3792.00,0.0107
3779.00,0.0107
3766.00,0.0106
3753.00,0.0106
3740.00,0.0106
3727.00,0.0106
3714.00,0.0106
3701.00,0.0105
3688.00,0.0107
3675.00,0.0111
3662.00,0.0115
3649.00,0.0122
3636.00,0.0129
3623.00,0.0138
3610.00,0.0151
3597.00,0.0164
3584.00,0.0182
3571.00,0.0199
3558.00,0.0220
3545.00,0.0241
3532.00,0.0258
3519.00,0.0277
3506.00,0.0292
3493.00,0.0308
3480.00,0.0328
3467.00,0.0349
3454.00,0.0373
3441.00,0.0399
3428.00,0.0432
3415.00,0.0469
3402.00,0.0491
3389.00,0.0482
3376.00,0.0455
3363.00,0.0430
3350.00,0.0409
3337.00,0.0398
3324.00,0.0394
3311.00,0.0395
3298.00,0.0404
3285.00,0.0416
3272.00,0.0421
3259.00,0.0431
3246.00,0.0433
3233.00,0.0428
3220.00,0.0418
3207.00,0.0395
3194.00,0.0367
3181.00,0.0338
3168.00,0.0309
3155.00,0.0281
3142.00,0.0256
3129.00,0.0236
3116.00,0.0221
3103.00,0.0205
3090.00,0.0199
3077.00,0.0194
3064.00,0.0188
3051.00,0.0186
3038.00,0.0187
3025.00,0.0184
3012.00,0.0180
2999.00,0.0226
2986.00,0.0301
2973.00,0.0411
2960.00,0.0519
2947.00,0.0434
2934.00,0.0601
2921.00,0.0676
2908.00,0.0472
2895.00,0.0387
2882.00,0.0354
2869.00,0.0398
2856.00,0.0525
2843.00,0.0328
2830.00,0.0231
2817.00,0.0196
2804.00,0.0181
2791.00,0.0170
2778.00,0.0162
2765.00,0.0158
2752.00,0.0157
2739.00,0.0160
2726.00,0.0163
2713.00,0.0157
2700.00,0.0155
2687.00,0.0150
2674.00,0.0149
2661.00,0.0155
2648.00,0.0156
2635.00,0.0153
2622.00,0.0147
2609.00,0.0146
2596.00,0.0148
2583.00,0.0149
2570.00,0.0146
2557.00,0.0143
2544.00,0.0141
2531.00,0.0139
2518.00,0.0136
2505.00,0.0134
2492.00,0.0132
2479.00,0.0131
2466.00,0.0131
2453.00,0.0132
2440.00,0.0129
2427.00,0.0129
2414.00,0.0128
2401.00,0.0128
2388.00,0.0126
2375.00,0.0122
2362.00,0.0123
2349.00,0.0125
2336.00,0.0128
2323.00,0.0138
2310.00,0.0129
2297.00,0.0132
2284.00,0.0139
2271.00,0.0132
2258.00,0.0128
2245.00,0.0127
2232.00,0.0127
2219.00,0.0127
2206.00,0.0128
2193.00,0.0128
2180.00,0.0127
2167.00,0.0136
2154.00,0.0102
2141.00,0.0112
2128.00,0.0113
2115.00,0.0125
2102.00,0.0122
2089.00,0.0120
2076.00,0.0122
2063.00,0.0118
2050.00,0.0119
2037.00,0.0114
2024.00,0.0108
2011.00,0.0104
1998.00,0.0107
1985.00,0.0113
1972.00,0.0098
1959.00,0.0097
1946.00,0.0105
1933.00,0.0104
1920.00,0.0110
1907.00,0.0123
1894.00,0.0118
1881.00,0.0111
1868.00,0.0114
1855.00,0.0113
1842.00,0.0112
1829.00,0.0112
1816.00,0.0110
1803.00,0.0116
1790.00,0.0115
1777.00,0.0122
1764.00,0.0122
1751.00,0.0130
1738.00,0.0133
1725.00,0.0157
1712.00,0.0193
1699.00,0.0276
1686.00,0.0547
1673.00,0.0939
1660.00,0.1295
1647.00,0.1426
1634.00,0.1235
1621.00,0.1371
1608.00,0.0937
1595.00,0.0541
1582.00,0.0752
1569.00,0.0490
1556.00,0.0295
1543.00,0.0263
1530.00,0.0239
1517.00,0.0272
1504.00,0.0366
1491.00,0.0548
1478.00,0.0320
1465.00,0.0819
1452.00,0.0685
1439.00,0.1043
1426.00,0.1225
1413.00,0.0809
1400.00,0.0862
1387.00,0.0644
1374.00,0.0611
1361.00,0.0719
1348.00,0.0562
1335.00,0.0468
1322.00,0.0589
1309.00,0.0552
1296.00,0.1009
1283.00,0.1333
1270.00,0.1044
1257.00,0.0655
1244.00,0.0689
1231.00,0.0878
1218.00,0.0729
1205.00,0.0588
1192.00,0.0802
1179.00,0.0484
1166.00,0.0477
1153.00,0.0747
1140.00,0.0393
1127.00,0.0857
1114.00,0.0488
1101.00,0.0613
1088.00,0.0386
1075.00,0.0392
1062.00,0.0534
1049.00,0.1092
1036.00,0.0620
1023.00,0.0860
1010.00,0.0468
997.00,0.0538
984.00,0.0368
971.00,0.0339
958.00,0.0317
945.00,0.0299
932.00,0.0389
919.00,0.0370
906.00,0.0303
893.00,0.0387
880.00,0.0340
867.00,0.0678
854.00,0.0583
841.00,0.0593
828.00,0.0579
815.00,0.0894
802.00,0.0406
789.00,0.0399
776.00,0.0469
763.00,0.0492
750.00,0.0565
737.00,0.0785
724.00,0.0726
711.00,0.0718
698.00,0.0766
685.00,0.0824
672.00,0.0952
659.00,0.1043
646.00,0.1067
633.00,0.1002
620.00,0.1058
607.00,0.1054
594.00,0.1200
581.00,0.1255
568.00,0.1256
555.00,0.1265
542.00,0.1287
529.00,0.1284
516.00,0.1122
503.00,0.1122
490.00,0.1123
477.00,0.1079
464.00,0.1052
451.00,0.1020
438.00,0.0982
425.00,0.0940
412.00,0.0958
400.00,0.0876