File: FTIR/Olivia/2025_08_04_1CBN_3PVP90kDa_MC_powder_scan1.csv
Created as New Dataset,Sample 1054 By YargerLab Date Monday, August 04 2025
cm-1,A
4000.00,0.0033
3987.00,0.0033
3974.00,0.0033
3961.00,0.0032
3948.00,0.0032
3935.00,0.0033
3922.00,0.0032
3909.00,0.0032
3896.00,0.0031
3883.00,0.0031
3870.00,0.0031
3857.00,0.0032
3844.00,0.0031
3831.00,0.0031
3818.00,0.0030
3805.00,0.0031
3792.00,0.0030
3779.00,0.0031
3766.00,0.0031
3753.00,0.0031
3740.00,0.0030
3727.00,0.0029
3714.00,0.0029
3701.00,0.0028
3688.00,0.0028
3675.00,0.0029
3662.00,0.0030
3649.00,0.0031
3636.00,0.0032
3623.00,0.0035
3610.00,0.0038
3597.00,0.0040
3584.00,0.0044
3571.00,0.0049
3558.00,0.0055
3545.00,0.0062
3532.00,0.0068
3519.00,0.0075
3506.00,0.0084
3493.00,0.0093
3480.00,0.0108
3467.00,0.0126
3454.00,0.0147
3441.00,0.0171
3428.00,0.0203
3415.00,0.0239
3402.00,0.0262
3389.00,0.0255
3376.00,0.0231
3363.00,0.0210
3350.00,0.0196
3337.00,0.0188
3324.00,0.0189
3311.00,0.0195
3298.00,0.0206
3285.00,0.0220
3272.00,0.0233
3259.00,0.0247
3246.00,0.0259
3233.00,0.0264
3220.00,0.0260
3207.00,0.0245
3194.00,0.0224
3181.00,0.0200
3168.00,0.0176
3155.00,0.0153
3142.00,0.0133
3129.00,0.0117
3116.00,0.0106
3103.00,0.0092
3090.00,0.0091
3077.00,0.0090
3064.00,0.0087
3051.00,0.0089
3038.00,0.0092
3025.00,0.0089
3012.00,0.0082
2999.00,0.0113
2986.00,0.0171
2973.00,0.0268
2960.00,0.0361
2947.00,0.0271
2934.00,0.0445
2921.00,0.0535
2908.00,0.0333
2895.00,0.0240
2882.00,0.0204
2869.00,0.0264
2856.00,0.0413
2843.00,0.0221
2830.00,0.0120
2817.00,0.0091
2804.00,0.0079
2791.00,0.0070
2778.00,0.0064
2765.00,0.0062
2752.00,0.0062
2739.00,0.0066
2726.00,0.0070
2713.00,0.0065
2700.00,0.0063
2687.00,0.0059
2674.00,0.0059
2661.00,0.0065
2648.00,0.0065
2635.00,0.0062
2622.00,0.0057
2609.00,0.0056
2596.00,0.0059
2583.00,0.0059
2570.00,0.0056
2557.00,0.0052
2544.00,0.0052
2531.00,0.0052
2518.00,0.0049
2505.00,0.0046
2492.00,0.0044
2479.00,0.0043
2466.00,0.0042
2453.00,0.0043
2440.00,0.0041
2427.00,0.0040
2414.00,0.0040
2401.00,0.0038
2388.00,0.0037
2375.00,0.0033
2362.00,0.0032
2349.00,0.0034
2336.00,0.0036
2323.00,0.0047
2310.00,0.0038
2297.00,0.0041
2284.00,0.0048
2271.00,0.0041
2258.00,0.0036
2245.00,0.0036
2232.00,0.0038
2219.00,0.0037
2206.00,0.0037
2193.00,0.0037
2180.00,0.0033
2167.00,0.0047
2154.00,0.0013
2141.00,0.0018
2128.00,0.0022
2115.00,0.0032
2102.00,0.0029
2089.00,0.0028
2076.00,0.0031
2063.00,0.0029
2050.00,0.0032
2037.00,0.0032
2024.00,0.0023
2011.00,0.0020
1998.00,0.0024
1985.00,0.0031
1972.00,0.0018
1959.00,0.0015
1946.00,0.0021
1933.00,0.0024
1920.00,0.0028
1907.00,0.0044
1894.00,0.0037
1881.00,0.0030
1868.00,0.0029
1855.00,0.0032
1842.00,0.0036
1829.00,0.0030
1816.00,0.0029
1803.00,0.0032
1790.00,0.0037
1777.00,0.0039
1764.00,0.0040
1751.00,0.0039
1738.00,0.0043
1725.00,0.0056
1712.00,0.0070
1699.00,0.0101
1686.00,0.0201
1673.00,0.0288
1660.00,0.0359
1647.00,0.0370
1634.00,0.0361
1621.00,0.0779
1608.00,0.0572
1595.00,0.0280
1582.00,0.0575
1569.00,0.0332
1556.00,0.0145
1543.00,0.0110
1530.00,0.0103
1517.00,0.0137
1504.00,0.0199
1491.00,0.0304
1478.00,0.0159
1465.00,0.0434
1452.00,0.0376
1439.00,0.0545
1426.00,0.0660
1413.00,0.0472
1400.00,0.0699
1387.00,0.0465
1374.00,0.0368
1361.00,0.0548
1348.00,0.0415
1335.00,0.0299
1322.00,0.0323
1309.00,0.0307
1296.00,0.0534
1283.00,0.0663
1270.00,0.0430
1257.00,0.0290
1244.00,0.0409
1231.00,0.0571
1218.00,0.0421
1205.00,0.0331
1192.00,0.0603
1179.00,0.0252
1166.00,0.0240
1153.00,0.0588
1140.00,0.0229
1127.00,0.0724
1114.00,0.0313
1101.00,0.0444
1088.00,0.0197
1075.00,0.0197
1062.00,0.0365
1049.00,0.0971
1036.00,0.0461
1023.00,0.0690
1010.00,0.0282
997.00,0.0352
984.00,0.0195
971.00,0.0180
958.00,0.0162
945.00,0.0145
932.00,0.0221
919.00,0.0219
906.00,0.0148
893.00,0.0221
880.00,0.0190
867.00,0.0529
854.00,0.0384
841.00,0.0354
828.00,0.0370
815.00,0.0710
802.00,0.0179
789.00,0.0167
776.00,0.0225
763.00,0.0216
750.00,0.0243
737.00,0.0420
724.00,0.0363
711.00,0.0360
698.00,0.0396
685.00,0.0413
672.00,0.0504
659.00,0.0514
646.00,0.0483
633.00,0.0457
620.00,0.0522
607.00,0.0516
594.00,0.0620
581.00,0.0622
568.00,0.0601
555.00,0.0636
542.00,0.0668
529.00,0.0676
516.00,0.0541
503.00,0.0553
490.00,0.0561
477.00,0.0528
464.00,0.0518
451.00,0.0507
438.00,0.0495
425.00,0.0462
412.00,0.0480
400.00,0.0447