File: FTIR/Olivia/2025_08_01_Polystyrene_Std_scan3.csv
Created as New Dataset,Sample 1011 By YargerLab Date Friday, August 01 2025
cm-1,A
4000.00,0.0005
3987.00,0.0005
3974.00,0.0005
3961.00,0.0005
3948.00,0.0005
3935.00,0.0005
3922.00,0.0005
3909.00,0.0005
3896.00,0.0005
3883.00,0.0005
3870.00,0.0004
3857.00,0.0005
3844.00,0.0005
3831.00,0.0005
3818.00,0.0004
3805.00,0.0006
3792.00,0.0006
3779.00,0.0006
3766.00,0.0005
3753.00,0.0004
3740.00,0.0004
3727.00,0.0004
3714.00,0.0004
3701.00,0.0005
3688.00,0.0004
3675.00,0.0004
3662.00,0.0005
3649.00,0.0004
3636.00,0.0005
3623.00,0.0004
3610.00,0.0004
3597.00,0.0005
3584.00,0.0005
3571.00,0.0006
3558.00,0.0006
3545.00,0.0006
3532.00,0.0007
3519.00,0.0008
3506.00,0.0008
3493.00,0.0009
3480.00,0.0009
3467.00,0.0010
3454.00,0.0010
3441.00,0.0010
3428.00,0.0010
3415.00,0.0010
3402.00,0.0011
3389.00,0.0011
3376.00,0.0011
3363.00,0.0011
3350.00,0.0011
3337.00,0.0010
3324.00,0.0011
3311.00,0.0010
3298.00,0.0010
3285.00,0.0010
3272.00,0.0011
3259.00,0.0010
3246.00,0.0009
3233.00,0.0009
3220.00,0.0008
3207.00,0.0009
3194.00,0.0009
3181.00,0.0007
3168.00,0.0008
3155.00,0.0008
3142.00,0.0007
3129.00,0.0008
3116.00,0.0010
3103.00,0.0021
3090.00,0.0028
3077.00,0.0043
3064.00,0.0060
3051.00,0.0046
3038.00,0.0048
3025.00,0.0140
3012.00,0.0038
2999.00,0.0036
2986.00,0.0018
2973.00,0.0019
2960.00,0.0026
2947.00,0.0053
2934.00,0.0111
2921.00,0.0160
2908.00,0.0125
2895.00,0.0073
2882.00,0.0050
2869.00,0.0038
2856.00,0.0056
2843.00,0.0058
2830.00,0.0018
2817.00,0.0014
2804.00,0.0012
2791.00,0.0010
2778.00,0.0010
2765.00,0.0009
2752.00,0.0008
2739.00,0.0008
2726.00,0.0008
2713.00,0.0008
2700.00,0.0008
2687.00,0.0008
2674.00,0.0009
2661.00,0.0012
2648.00,0.0013
2635.00,0.0014
2622.00,0.0012
2609.00,0.0011
2596.00,0.0010
2583.00,0.0010
2570.00,0.0008
2557.00,0.0007
2544.00,0.0007
2531.00,0.0006
2518.00,0.0006
2505.00,0.0006
2492.00,0.0006
2479.00,0.0005
2466.00,0.0004
2453.00,0.0006
2440.00,0.0004
2427.00,0.0003
2414.00,0.0003
2401.00,0.0002
2388.00,0.0001
2375.00,0.0000
2362.00,0.0002
2349.00,0.0003
2336.00,0.0007
2323.00,0.0017
2310.00,0.0010
2297.00,0.0010
2284.00,0.0013
2271.00,0.0009
2258.00,0.0009
2245.00,0.0005
2232.00,0.0006
2219.00,0.0006
2206.00,0.0003
2193.00,0.0005
2180.00,-0.0001
2167.00,0.0015
2154.00,-0.0022
2141.00,-0.0012
2128.00,-0.0011
2115.00,0.0001
2102.00,0.0001
2089.00,0.0001
2076.00,0.0003
2063.00,0.0001
2050.00,0.0011
2037.00,0.0003
2024.00,-0.0008
2011.00,-0.0005
1998.00,-0.0003
1985.00,0.0008
1972.00,-0.0007
1959.00,-0.0002
1946.00,0.0011
1933.00,0.0003
1920.00,-0.0002
1907.00,-0.0001
1894.00,0.0004
1881.00,0.0011
1868.00,0.0014
1855.00,0.0004
1842.00,0.0001
1829.00,0.0003
1816.00,0.0008
1803.00,0.0019
1790.00,0.0010
1777.00,0.0007
1764.00,0.0010
1751.00,0.0018
1738.00,0.0019
1725.00,0.0014
1712.00,0.0012
1699.00,0.0013
1686.00,0.0017
1673.00,0.0022
1660.00,0.0021
1647.00,0.0016
1634.00,0.0013
1621.00,0.0017
1608.00,0.0055
1595.00,0.0074
1582.00,0.0057
1569.00,0.0013
1556.00,0.0013
1543.00,0.0021
1530.00,0.0015
1517.00,0.0015
1504.00,0.0030
1491.00,0.0349
1478.00,0.0041
1465.00,0.0042
1452.00,0.0374
1439.00,0.0140
1426.00,0.0040
1413.00,0.0028
1400.00,0.0028
1387.00,0.0050
1374.00,0.0080
1361.00,0.0075
1348.00,0.0067
1335.00,0.0060
1322.00,0.0065
1309.00,0.0066
1296.00,0.0054
1283.00,0.0049
1270.00,0.0038
1257.00,0.0034
1244.00,0.0035
1231.00,0.0034
1218.00,0.0035
1205.00,0.0045
1192.00,0.0058
1179.00,0.0076
1166.00,0.0046
1153.00,0.0081
1140.00,0.0033
1127.00,0.0030
1114.00,0.0046
1101.00,0.0049
1088.00,0.0060
1075.00,0.0100
1062.00,0.0100
1049.00,0.0068
1036.00,0.0095
1023.00,0.0162
1010.00,0.0088
997.00,0.0072
984.00,0.0080
971.00,0.0079
958.00,0.0074
945.00,0.0071
932.00,0.0053
919.00,0.0061
906.00,0.0147
893.00,0.0055
880.00,0.0038
867.00,0.0032
854.00,0.0038
841.00,0.0075
828.00,0.0034
815.00,0.0034
802.00,0.0040
789.00,0.0076
776.00,0.0190
763.00,0.0493
750.00,0.0640
737.00,0.0276
724.00,0.0079
711.00,0.0175
698.00,0.1719
685.00,0.0650
672.00,0.0288
659.00,0.0175
646.00,0.0108
633.00,0.0122
620.00,0.0146
607.00,0.0114
594.00,0.0127
581.00,0.0167
568.00,0.0275
555.00,0.0393
542.00,0.0624
529.00,0.0454
516.00,0.0236
503.00,0.0155
490.00,0.0118
477.00,0.0104
464.00,0.0097
451.00,0.0087
438.00,0.0088
425.00,0.0082
412.00,0.0068
400.00,0.0065