File: FTIR/Olivia/2025_07_15_Polystyrene_Std_scan1.csv
Created as New Dataset,Sample 819 By YargerLab Date Friday, July 11 2025
cm-1,A
4000.00,0.0016
3987.00,0.0015
3974.00,0.0015
3961.00,0.0015
3948.00,0.0015
3935.00,0.0015
3922.00,0.0014
3909.00,0.0014
3896.00,0.0012
3883.00,0.0012
3870.00,0.0011
3857.00,0.0011
3844.00,0.0012
3831.00,0.0013
3818.00,0.0011
3805.00,0.0012
3792.00,0.0015
3779.00,0.0015
3766.00,0.0014
3753.00,0.0012
3740.00,0.0011
3727.00,0.0013
3714.00,0.0011
3701.00,0.0014
3688.00,0.0010
3675.00,0.0004
3662.00,0.0008
3649.00,0.0004
3636.00,0.0010
3623.00,0.0013
3610.00,0.0012
3597.00,0.0015
3584.00,0.0015
3571.00,0.0016
3558.00,0.0017
3545.00,0.0018
3532.00,0.0020
3519.00,0.0020
3506.00,0.0020
3493.00,0.0022
3480.00,0.0022
3467.00,0.0023
3454.00,0.0023
3441.00,0.0023
3428.00,0.0023
3415.00,0.0024
3402.00,0.0024
3389.00,0.0023
3376.00,0.0023
3363.00,0.0023
3350.00,0.0023
3337.00,0.0023
3324.00,0.0023
3311.00,0.0022
3298.00,0.0023
3285.00,0.0023
3272.00,0.0023
3259.00,0.0022
3246.00,0.0022
3233.00,0.0020
3220.00,0.0020
3207.00,0.0021
3194.00,0.0020
3181.00,0.0019
3168.00,0.0020
3155.00,0.0020
3142.00,0.0019
3129.00,0.0020
3116.00,0.0023
3103.00,0.0041
3090.00,0.0054
3077.00,0.0077
3064.00,0.0108
3051.00,0.0082
3038.00,0.0088
3025.00,0.0239
3012.00,0.0064
2999.00,0.0035
2986.00,-0.0013
2973.00,-0.0017
2960.00,0.0021
2947.00,0.0079
2934.00,0.0188
2921.00,0.0272
2908.00,0.0202
2895.00,0.0111
2882.00,0.0072
2869.00,0.0063
2856.00,0.0104
2843.00,0.0103
2830.00,0.0038
2817.00,0.0030
2804.00,0.0027
2791.00,0.0026
2778.00,0.0024
2765.00,0.0023
2752.00,0.0022
2739.00,0.0022
2726.00,0.0023
2713.00,0.0023
2700.00,0.0023
2687.00,0.0022
2674.00,0.0022
2661.00,0.0025
2648.00,0.0027
2635.00,0.0028
2622.00,0.0026
2609.00,0.0026
2596.00,0.0024
2583.00,0.0024
2570.00,0.0022
2557.00,0.0021
2544.00,0.0020
2531.00,0.0020
2518.00,0.0020
2505.00,0.0019
2492.00,0.0018
2479.00,0.0018
2466.00,0.0018
2453.00,0.0019
2440.00,0.0016
2427.00,0.0016
2414.00,0.0015
2401.00,0.0013
2388.00,0.0013
2375.00,0.0014
2362.00,0.0017
2349.00,0.0018
2336.00,0.0022
2323.00,0.0032
2310.00,0.0025
2297.00,0.0024
2284.00,0.0027
2271.00,0.0023
2258.00,0.0023
2245.00,0.0018
2232.00,0.0017
2219.00,0.0016
2206.00,0.0017
2193.00,0.0018
2180.00,0.0012
2167.00,0.0029
2154.00,-0.0009
2141.00,-0.0001
2128.00,0.0001
2115.00,0.0013
2102.00,0.0013
2089.00,0.0012
2076.00,0.0014
2063.00,0.0010
2050.00,0.0020
2037.00,0.0013
2024.00,0.0007
2011.00,0.0006
1998.00,0.0008
1985.00,0.0020
1972.00,0.0004
1959.00,0.0015
1946.00,0.0035
1933.00,0.0022
1920.00,0.0012
1907.00,0.0012
1894.00,0.0020
1881.00,0.0032
1868.00,0.0036
1855.00,0.0018
1842.00,0.0013
1829.00,0.0019
1816.00,0.0027
1803.00,0.0044
1790.00,0.0028
1777.00,0.0024
1764.00,0.0026
1751.00,0.0043
1738.00,0.0047
1725.00,0.0040
1712.00,0.0035
1699.00,0.0035
1686.00,0.0042
1673.00,0.0053
1660.00,0.0053
1647.00,0.0042
1634.00,0.0036
1621.00,0.0039
1608.00,0.0101
1595.00,0.0131
1582.00,0.0104
1569.00,0.0035
1556.00,0.0033
1543.00,0.0047
1530.00,0.0036
1517.00,0.0035
1504.00,0.0057
1491.00,0.0560
1478.00,0.0073
1465.00,0.0072
1452.00,0.0617
1439.00,0.0231
1426.00,0.0075
1413.00,0.0051
1400.00,0.0039
1387.00,0.0065
1374.00,0.0118
1361.00,0.0119
1348.00,0.0109
1335.00,0.0101
1322.00,0.0110
1309.00,0.0113
1296.00,0.0095
1283.00,0.0084
1270.00,0.0061
1257.00,0.0048
1244.00,0.0052
1231.00,0.0055
1218.00,0.0063
1205.00,0.0081
1192.00,0.0099
1179.00,0.0117
1166.00,0.0061
1153.00,0.0109
1140.00,0.0039
1127.00,0.0042
1114.00,0.0066
1101.00,0.0068
1088.00,0.0080
1075.00,0.0137
1062.00,0.0138
1049.00,0.0096
1036.00,0.0140
1023.00,0.0240
1010.00,0.0130
997.00,0.0104
984.00,0.0117
971.00,0.0102
958.00,0.0091
945.00,0.0092
932.00,0.0072
919.00,0.0093
906.00,0.0225
893.00,0.0084
880.00,0.0061
867.00,0.0054
854.00,0.0061
841.00,0.0115
828.00,0.0051
815.00,0.0050
802.00,0.0060
789.00,0.0115
776.00,0.0285
763.00,0.0749
750.00,0.0979
737.00,0.0414
724.00,0.0115
711.00,0.0257
698.00,0.2617
685.00,0.0955
672.00,0.0423
659.00,0.0252
646.00,0.0159
633.00,0.0174
620.00,0.0209
607.00,0.0162
594.00,0.0179
581.00,0.0231
568.00,0.0390
555.00,0.0566
542.00,0.0897
529.00,0.0643
516.00,0.0313
503.00,0.0209
490.00,0.0160
477.00,0.0134
464.00,0.0124
451.00,0.0117
438.00,0.0108
425.00,0.0104
412.00,0.0092
400.00,0.0102