File: FTIR/Olivia/2025_08_05_silicon_dish_scan2.csv
Created as New Dataset,Sample 1073 By YargerLab Date Tuesday, August 05 2025
cm-1,A
4000.00,0.0007
3987.00,0.0007
3974.00,0.0006
3961.00,0.0007
3948.00,0.0006
3935.00,0.0006
3922.00,0.0006
3909.00,0.0006
3896.00,0.0006
3883.00,0.0006
3870.00,0.0006
3857.00,0.0006
3844.00,0.0007
3831.00,0.0006
3818.00,0.0006
3805.00,0.0007
3792.00,0.0009
3779.00,0.0011
3766.00,0.0012
3753.00,0.0012
3740.00,0.0011
3727.00,0.0013
3714.00,0.0017
3701.00,0.0024
3688.00,0.0029
3675.00,0.0039
3662.00,0.0051
3649.00,0.0057
3636.00,0.0061
3623.00,0.0062
3610.00,0.0064
3597.00,0.0068
3584.00,0.0070
3571.00,0.0073
3558.00,0.0078
3545.00,0.0083
3532.00,0.0089
3519.00,0.0095
3506.00,0.0100
3493.00,0.0106
3480.00,0.0110
3467.00,0.0114
3454.00,0.0118
3441.00,0.0120
3428.00,0.0123
3415.00,0.0125
3402.00,0.0126
3389.00,0.0126
3376.00,0.0125
3363.00,0.0125
3350.00,0.0124
3337.00,0.0123
3324.00,0.0121
3311.00,0.0120
3298.00,0.0119
3285.00,0.0118
3272.00,0.0116
3259.00,0.0115
3246.00,0.0113
3233.00,0.0111
3220.00,0.0108
3207.00,0.0106
3194.00,0.0103
3181.00,0.0100
3168.00,0.0097
3155.00,0.0095
3142.00,0.0093
3129.00,0.0091
3116.00,0.0090
3103.00,0.0088
3090.00,0.0085
3077.00,0.0082
3064.00,0.0080
3051.00,0.0078
3038.00,0.0075
3025.00,0.0074
3012.00,0.0074
2999.00,0.0080
2986.00,0.0114
2973.00,0.0328
2960.00,0.0636
2947.00,0.0173
2934.00,0.0090
2921.00,0.0068
2908.00,0.0115
2895.00,0.0083
2882.00,0.0061
2869.00,0.0050
2856.00,0.0039
2843.00,0.0040
2830.00,0.0042
2817.00,0.0042
2804.00,0.0041
2791.00,0.0038
2778.00,0.0030
2765.00,0.0026
2752.00,0.0024
2739.00,0.0022
2726.00,0.0021
2713.00,0.0020
2700.00,0.0020
2687.00,0.0019
2674.00,0.0020
2661.00,0.0020
2648.00,0.0017
2635.00,0.0014
2622.00,0.0013
2609.00,0.0012
2596.00,0.0011
2583.00,0.0011
2570.00,0.0011
2557.00,0.0011
2544.00,0.0011
2531.00,0.0012
2518.00,0.0013
2505.00,0.0015
2492.00,0.0013
2479.00,0.0011
2466.00,0.0010
2453.00,0.0011
2440.00,0.0009
2427.00,0.0010
2414.00,0.0010
2401.00,0.0010
2388.00,0.0010
2375.00,0.0010
2362.00,0.0011
2349.00,0.0012
2336.00,0.0012
2323.00,0.0013
2310.00,0.0011
2297.00,0.0010
2284.00,0.0009
2271.00,0.0006
2258.00,0.0006
2245.00,0.0004
2232.00,0.0001
2219.00,-0.0003
2206.00,-0.0005
2193.00,-0.0009
2180.00,-0.0014
2167.00,-0.0017
2154.00,-0.0023
2141.00,-0.0013
2128.00,-0.0007
2115.00,-0.0003
2102.00,-0.0003
2089.00,-0.0005
2076.00,-0.0009
2063.00,-0.0013
2050.00,-0.0018
2037.00,-0.0043
2024.00,-0.0053
2011.00,-0.0049
1998.00,-0.0035
1985.00,-0.0027
1972.00,-0.0024
1959.00,-0.0003
1946.00,0.0012
1933.00,0.0016
1920.00,0.0018
1907.00,0.0021
1894.00,0.0026
1881.00,0.0031
1868.00,0.0032
1855.00,0.0030
1842.00,0.0028
1829.00,0.0028
1816.00,0.0029
1803.00,0.0032
1790.00,0.0035
1777.00,0.0039
1764.00,0.0039
1751.00,0.0039
1738.00,0.0041
1725.00,0.0047
1712.00,0.0051
1699.00,0.0060
1686.00,0.0075
1673.00,0.0086
1660.00,0.0096
1647.00,0.0105
1634.00,0.0111
1621.00,0.0109
1608.00,0.0095
1595.00,0.0081
1582.00,0.0073
1569.00,0.0065
1556.00,0.0060
1543.00,0.0064
1530.00,0.0063
1517.00,0.0063
1504.00,0.0065
1491.00,0.0069
1478.00,0.0075
1465.00,0.0075
1452.00,0.0104
1439.00,0.0112
1426.00,0.0123
1413.00,0.0221
1400.00,0.0188
1387.00,0.0110
1374.00,0.0092
1361.00,0.0089
1348.00,0.0092
1335.00,0.0095
1322.00,0.0103
1309.00,0.0122
1296.00,0.0155
1283.00,0.0227
1270.00,0.0660
1257.00,0.2759
1244.00,0.0953
1231.00,0.1024
1218.00,0.1170
1205.00,0.1294
1192.00,0.1407
1179.00,0.1526
1166.00,0.1642
1153.00,0.1756
1140.00,0.1902
1127.00,0.2141
1114.00,0.2676
1101.00,0.3951
1088.00,0.5612
1075.00,0.6658
1062.00,0.7032
1049.00,0.7061
1036.00,0.7165
1023.00,0.8131
1010.00,1.0929
997.00,0.7685
984.00,0.3925
971.00,0.2412
958.00,0.1777
945.00,0.1371
932.00,0.1071
919.00,0.0876
906.00,0.0803
893.00,0.0841
880.00,0.1167
867.00,0.1502
854.00,0.1254
841.00,0.1158
828.00,0.1768
815.00,0.3630
802.00,0.6403
789.00,1.1161
776.00,0.7115
763.00,0.3360
750.00,0.2180
737.00,0.1676
724.00,0.1362
711.00,0.1526
698.00,0.1868
685.00,0.1837
672.00,0.1609
659.00,0.1670
646.00,0.1010
633.00,0.0989
620.00,0.1002
607.00,0.1027
594.00,0.1090
581.00,0.1182
568.00,0.1285
555.00,0.1374
542.00,0.1416
529.00,0.1425
516.00,0.1492
503.00,0.1789
490.00,0.2625
477.00,0.4217
464.00,0.5694
451.00,0.5779
438.00,0.4766
425.00,0.3536
412.00,0.3501
400.00,0.4815