File: FTIR/Olivia/2025_06_06_Crystalline_Felodipine_Scan1.csv
Created as New Dataset,Sample 623 By YargerLab Date Friday, June 06 2025
cm-1,A
4000.00,0.0191
3987.00,0.0192
3974.00,0.0191
3961.00,0.0191
3948.00,0.0191
3935.00,0.0191
3922.00,0.0192
3909.00,0.0191
3896.00,0.0189
3883.00,0.0190
3870.00,0.0189
3857.00,0.0189
3844.00,0.0188
3831.00,0.0188
3818.00,0.0188
3805.00,0.0188
3792.00,0.0187
3779.00,0.0187
3766.00,0.0186
3753.00,0.0186
3740.00,0.0186
3727.00,0.0185
3714.00,0.0184
3701.00,0.0182
3688.00,0.0181
3675.00,0.0175
3662.00,0.0170
3649.00,0.0172
3636.00,0.0172
3623.00,0.0177
3610.00,0.0178
3597.00,0.0177
3584.00,0.0176
3571.00,0.0176
3558.00,0.0176
3545.00,0.0176
3532.00,0.0175
3519.00,0.0174
3506.00,0.0174
3493.00,0.0173
3480.00,0.0171
3467.00,0.0170
3454.00,0.0168
3441.00,0.0168
3428.00,0.0168
3415.00,0.0173
3402.00,0.0188
3389.00,0.0254
3376.00,0.0539
3363.00,0.0620
3350.00,0.0420
3337.00,0.0323
3324.00,0.0283
3311.00,0.0264
3298.00,0.0251
3285.00,0.0236
3272.00,0.0221
3259.00,0.0218
3246.00,0.0217
3233.00,0.0217
3220.00,0.0211
3207.00,0.0203
3194.00,0.0198
3181.00,0.0196
3168.00,0.0194
3155.00,0.0193
3142.00,0.0194
3129.00,0.0195
3116.00,0.0200
3103.00,0.0211
3090.00,0.0210
3077.00,0.0210
3064.00,0.0206
3051.00,0.0201
3038.00,0.0194
3025.00,0.0199
3012.00,0.0203
2999.00,0.0207
2986.00,0.0230
2973.00,0.0188
2960.00,0.0230
2947.00,0.0289
2934.00,0.0262
2921.00,0.0223
2908.00,0.0212
2895.00,0.0207
2882.00,0.0202
2869.00,0.0202
2856.00,0.0201
2843.00,0.0209
2830.00,0.0205
2817.00,0.0201
2804.00,0.0205
2791.00,0.0198
2778.00,0.0190
2765.00,0.0189
2752.00,0.0187
2739.00,0.0184
2726.00,0.0182
2713.00,0.0180
2700.00,0.0181
2687.00,0.0179
2674.00,0.0177
2661.00,0.0180
2648.00,0.0180
2635.00,0.0181
2622.00,0.0181
2609.00,0.0182
2596.00,0.0180
2583.00,0.0176
2570.00,0.0174
2557.00,0.0175
2544.00,0.0172
2531.00,0.0168
2518.00,0.0170
2505.00,0.0170
2492.00,0.0169
2479.00,0.0170
2466.00,0.0168
2453.00,0.0167
2440.00,0.0164
2427.00,0.0163
2414.00,0.0162
2401.00,0.0158
2388.00,0.0157
2375.00,0.0153
2362.00,0.0152
2349.00,0.0152
2336.00,0.0154
2323.00,0.0164
2310.00,0.0154
2297.00,0.0158
2284.00,0.0162
2271.00,0.0154
2258.00,0.0153
2245.00,0.0149
2232.00,0.0145
2219.00,0.0143
2206.00,0.0135
2193.00,0.0133
2180.00,0.0131
2167.00,0.0148
2154.00,0.0117
2141.00,0.0123
2128.00,0.0124
2115.00,0.0133
2102.00,0.0136
2089.00,0.0134
2076.00,0.0134
2063.00,0.0129
2050.00,0.0131
2037.00,0.0121
2024.00,0.0111
2011.00,0.0116
1998.00,0.0118
1985.00,0.0128
1972.00,0.0111
1959.00,0.0106
1946.00,0.0109
1933.00,0.0113
1920.00,0.0123
1907.00,0.0121
1894.00,0.0114
1881.00,0.0115
1868.00,0.0114
1855.00,0.0120
1842.00,0.0111
1829.00,0.0106
1816.00,0.0102
1803.00,0.0106
1790.00,0.0110
1777.00,0.0105
1764.00,0.0108
1751.00,0.0115
1738.00,0.0119
1725.00,0.0135
1712.00,0.0283
1699.00,0.1577
1686.00,0.1782
1673.00,0.0683
1660.00,0.0431
1647.00,0.0730
1634.00,0.0617
1621.00,0.1082
1608.00,0.0662
1595.00,0.0395
1582.00,0.0330
1569.00,0.0234
1556.00,0.0213
1543.00,0.0185
1530.00,0.0203
1517.00,0.0291
1504.00,0.0954
1491.00,0.1812
1478.00,0.0919
1465.00,0.0682
1452.00,0.0638
1439.00,0.0699
1426.00,0.0777
1413.00,0.0860
1400.00,0.0418
1387.00,0.0554
1374.00,0.0534
1361.00,0.0482
1348.00,0.0225
1335.00,0.0207
1322.00,0.0262
1309.00,0.0926
1296.00,0.0529
1283.00,0.1275
1270.00,0.1502
1257.00,0.0555
1244.00,0.0385
1231.00,0.0316
1218.00,0.0542
1205.00,0.1970
1192.00,0.1337
1179.00,0.0912
1166.00,0.0606
1153.00,0.0501
1140.00,0.1260
1127.00,0.0841
1114.00,0.1716
1101.00,0.2077
1088.00,0.1680
1075.00,0.0852
1062.00,0.1156
1049.00,0.0922
1036.00,0.1062
1023.00,0.1408
1010.00,0.0868
997.00,0.0616
984.00,0.0549
971.00,0.0551
958.00,0.0460
945.00,0.0355
932.00,0.0314
919.00,0.0292
906.00,0.0277
893.00,0.0265
880.00,0.0271
867.00,0.0485
854.00,0.0557
841.00,0.0284
828.00,0.0278
815.00,0.0278
802.00,0.1256
789.00,0.0406
776.00,0.0458
763.00,0.0464
750.00,0.0373
737.00,0.0910
724.00,0.1588
711.00,0.0404
698.00,0.0279
685.00,0.0330
672.00,0.0698
659.00,0.0330
646.00,0.0304
633.00,0.0394
620.00,0.0720
607.00,0.0584
594.00,0.0563
581.00,0.0568
568.00,0.1076
555.00,0.0962
542.00,0.0717
529.00,0.0448
516.00,0.0318
503.00,0.0260
490.00,0.0228
477.00,0.0225
464.00,0.0464
451.00,0.0287
438.00,0.0209
425.00,0.0261
412.00,0.0345
400.00,0.0353