File: FTIR/Olivia/2025_08_04_1CBN_3PVP10kDa_MC_powder_scan2.csv
Created as New Dataset,Sample 1043 By YargerLab Date Monday, August 04 2025
cm-1,A
4000.00,0.0028
3987.00,0.0029
3974.00,0.0028
3961.00,0.0029
3948.00,0.0029
3935.00,0.0029
3922.00,0.0029
3909.00,0.0029
3896.00,0.0031
3883.00,0.0031
3870.00,0.0032
3857.00,0.0032
3844.00,0.0031
3831.00,0.0031
3818.00,0.0033
3805.00,0.0032
3792.00,0.0030
3779.00,0.0030
3766.00,0.0031
3753.00,0.0034
3740.00,0.0034
3727.00,0.0031
3714.00,0.0031
3701.00,0.0029
3688.00,0.0031
3675.00,0.0033
3662.00,0.0030
3649.00,0.0036
3636.00,0.0032
3623.00,0.0036
3610.00,0.0040
3597.00,0.0040
3584.00,0.0045
3571.00,0.0050
3558.00,0.0053
3545.00,0.0059
3532.00,0.0064
3519.00,0.0067
3506.00,0.0071
3493.00,0.0074
3480.00,0.0077
3467.00,0.0081
3454.00,0.0085
3441.00,0.0089
3428.00,0.0095
3415.00,0.0100
3402.00,0.0104
3389.00,0.0104
3376.00,0.0100
3363.00,0.0096
3350.00,0.0092
3337.00,0.0088
3324.00,0.0088
3311.00,0.0087
3298.00,0.0088
3285.00,0.0089
3272.00,0.0090
3259.00,0.0090
3246.00,0.0091
3233.00,0.0089
3220.00,0.0087
3207.00,0.0083
3194.00,0.0078
3181.00,0.0074
3168.00,0.0069
3155.00,0.0063
3142.00,0.0058
3129.00,0.0055
3116.00,0.0052
3103.00,0.0049
3090.00,0.0048
3077.00,0.0046
3064.00,0.0045
3051.00,0.0045
3038.00,0.0045
3025.00,0.0044
3012.00,0.0044
2999.00,0.0052
2986.00,0.0069
2973.00,0.0091
2960.00,0.0111
2947.00,0.0101
2934.00,0.0129
2921.00,0.0128
2908.00,0.0097
2895.00,0.0084
2882.00,0.0080
2869.00,0.0090
2856.00,0.0104
2843.00,0.0068
2830.00,0.0052
2817.00,0.0045
2804.00,0.0042
2791.00,0.0040
2778.00,0.0038
2765.00,0.0037
2752.00,0.0037
2739.00,0.0037
2726.00,0.0038
2713.00,0.0037
2700.00,0.0036
2687.00,0.0035
2674.00,0.0035
2661.00,0.0039
2648.00,0.0040
2635.00,0.0039
2622.00,0.0038
2609.00,0.0037
2596.00,0.0037
2583.00,0.0036
2570.00,0.0035
2557.00,0.0035
2544.00,0.0034
2531.00,0.0034
2518.00,0.0032
2505.00,0.0031
2492.00,0.0031
2479.00,0.0030
2466.00,0.0030
2453.00,0.0032
2440.00,0.0030
2427.00,0.0030
2414.00,0.0029
2401.00,0.0028
2388.00,0.0027
2375.00,0.0024
2362.00,0.0025
2349.00,0.0024
2336.00,0.0027
2323.00,0.0036
2310.00,0.0027
2297.00,0.0033
2284.00,0.0039
2271.00,0.0032
2258.00,0.0034
2245.00,0.0033
2232.00,0.0033
2219.00,0.0032
2206.00,0.0032
2193.00,0.0033
2180.00,0.0027
2167.00,0.0041
2154.00,0.0011
2141.00,0.0018
2128.00,0.0019
2115.00,0.0030
2102.00,0.0029
2089.00,0.0027
2076.00,0.0029
2063.00,0.0028
2050.00,0.0038
2037.00,0.0031
2024.00,0.0022
2011.00,0.0021
1998.00,0.0025
1985.00,0.0029
1972.00,0.0018
1959.00,0.0015
1946.00,0.0019
1933.00,0.0018
1920.00,0.0022
1907.00,0.0025
1894.00,0.0024
1881.00,0.0022
1868.00,0.0023
1855.00,0.0023
1842.00,0.0024
1829.00,0.0023
1816.00,0.0020
1803.00,0.0024
1790.00,0.0025
1777.00,0.0025
1764.00,0.0026
1751.00,0.0028
1738.00,0.0030
1725.00,0.0033
1712.00,0.0042
1699.00,0.0075
1686.00,0.0182
1673.00,0.0292
1660.00,0.0374
1647.00,0.0387
1634.00,0.0280
1621.00,0.0285
1608.00,0.0199
1595.00,0.0120
1582.00,0.0158
1569.00,0.0101
1556.00,0.0066
1543.00,0.0058
1530.00,0.0054
1517.00,0.0060
1504.00,0.0085
1491.00,0.0130
1478.00,0.0079
1465.00,0.0184
1452.00,0.0163
1439.00,0.0248
1426.00,0.0291
1413.00,0.0207
1400.00,0.0191
1387.00,0.0140
1374.00,0.0145
1361.00,0.0160
1348.00,0.0120
1335.00,0.0103
1322.00,0.0136
1309.00,0.0137
1296.00,0.0227
1283.00,0.0328
1270.00,0.0281
1257.00,0.0179
1244.00,0.0170
1231.00,0.0208
1218.00,0.0185
1205.00,0.0154
1192.00,0.0185
1179.00,0.0124
1166.00,0.0130
1153.00,0.0181
1140.00,0.0102
1127.00,0.0189
1114.00,0.0114
1101.00,0.0138
1088.00,0.0095
1075.00,0.0098
1062.00,0.0135
1049.00,0.0234
1036.00,0.0135
1023.00,0.0179
1010.00,0.0110
997.00,0.0120
984.00,0.0089
971.00,0.0081
958.00,0.0077
945.00,0.0073
932.00,0.0097
919.00,0.0090
906.00,0.0080
893.00,0.0094
880.00,0.0084
867.00,0.0141
854.00,0.0132
841.00,0.0137
828.00,0.0126
815.00,0.0172
802.00,0.0085
789.00,0.0086
776.00,0.0100
763.00,0.0107
750.00,0.0126
737.00,0.0170
724.00,0.0151
711.00,0.0144
698.00,0.0153
685.00,0.0168
672.00,0.0196
659.00,0.0222
646.00,0.0238
633.00,0.0217
620.00,0.0222
607.00,0.0222
594.00,0.0247
581.00,0.0269
568.00,0.0270
555.00,0.0269
542.00,0.0265
529.00,0.0264
516.00,0.0246
503.00,0.0253
490.00,0.0252
477.00,0.0257
464.00,0.0247
451.00,0.0245
438.00,0.0233
425.00,0.0218
412.00,0.0203
400.00,0.0234