File: FTIR/Olivia/2025_08_01_1CBN_3PVP10_drybatchpowder_scan4.csv
Created as New Dataset,Sample 1015 By YargerLab Date Friday, August 01 2025
cm-1,A
4000.00,0.0046
3987.00,0.0046
3974.00,0.0046
3961.00,0.0046
3948.00,0.0045
3935.00,0.0045
3922.00,0.0045
3909.00,0.0045
3896.00,0.0044
3883.00,0.0043
3870.00,0.0043
3857.00,0.0043
3844.00,0.0044
3831.00,0.0043
3818.00,0.0042
3805.00,0.0043
3792.00,0.0044
3779.00,0.0044
3766.00,0.0043
3753.00,0.0043
3740.00,0.0042
3727.00,0.0041
3714.00,0.0041
3701.00,0.0043
3688.00,0.0042
3675.00,0.0041
3662.00,0.0044
3649.00,0.0043
3636.00,0.0048
3623.00,0.0050
3610.00,0.0053
3597.00,0.0057
3584.00,0.0061
3571.00,0.0067
3558.00,0.0075
3545.00,0.0081
3532.00,0.0089
3519.00,0.0096
3506.00,0.0102
3493.00,0.0109
3480.00,0.0118
3467.00,0.0130
3454.00,0.0144
3441.00,0.0160
3428.00,0.0181
3415.00,0.0206
3402.00,0.0219
3389.00,0.0212
3376.00,0.0198
3363.00,0.0184
3350.00,0.0174
3337.00,0.0170
3324.00,0.0170
3311.00,0.0174
3298.00,0.0181
3285.00,0.0189
3272.00,0.0197
3259.00,0.0204
3246.00,0.0210
3233.00,0.0210
3220.00,0.0204
3207.00,0.0191
3194.00,0.0175
3181.00,0.0159
3168.00,0.0143
3155.00,0.0126
3142.00,0.0113
3129.00,0.0103
3116.00,0.0096
3103.00,0.0087
3090.00,0.0085
3077.00,0.0085
3064.00,0.0081
3051.00,0.0082
3038.00,0.0083
3025.00,0.0082
3012.00,0.0078
2999.00,0.0099
2986.00,0.0143
2973.00,0.0199
2960.00,0.0258
2947.00,0.0207
2934.00,0.0313
2921.00,0.0331
2908.00,0.0215
2895.00,0.0166
2882.00,0.0151
2869.00,0.0185
2856.00,0.0251
2843.00,0.0141
2830.00,0.0093
2817.00,0.0078
2804.00,0.0071
2791.00,0.0066
2778.00,0.0062
2765.00,0.0061
2752.00,0.0062
2739.00,0.0063
2726.00,0.0065
2713.00,0.0062
2700.00,0.0061
2687.00,0.0059
2674.00,0.0059
2661.00,0.0063
2648.00,0.0064
2635.00,0.0062
2622.00,0.0059
2609.00,0.0058
2596.00,0.0059
2583.00,0.0059
2570.00,0.0057
2557.00,0.0055
2544.00,0.0054
2531.00,0.0055
2518.00,0.0052
2505.00,0.0049
2492.00,0.0050
2479.00,0.0048
2466.00,0.0047
2453.00,0.0048
2440.00,0.0046
2427.00,0.0046
2414.00,0.0045
2401.00,0.0044
2388.00,0.0043
2375.00,0.0041
2362.00,0.0042
2349.00,0.0043
2336.00,0.0045
2323.00,0.0054
2310.00,0.0048
2297.00,0.0050
2284.00,0.0052
2271.00,0.0047
2258.00,0.0046
2245.00,0.0045
2232.00,0.0046
2219.00,0.0047
2206.00,0.0046
2193.00,0.0047
2180.00,0.0042
2167.00,0.0053
2154.00,0.0021
2141.00,0.0030
2128.00,0.0031
2115.00,0.0041
2102.00,0.0040
2089.00,0.0038
2076.00,0.0040
2063.00,0.0038
2050.00,0.0046
2037.00,0.0041
2024.00,0.0032
2011.00,0.0035
1998.00,0.0032
1985.00,0.0046
1972.00,0.0027
1959.00,0.0027
1946.00,0.0029
1933.00,0.0032
1920.00,0.0034
1907.00,0.0041
1894.00,0.0038
1881.00,0.0035
1868.00,0.0034
1855.00,0.0036
1842.00,0.0037
1829.00,0.0034
1816.00,0.0033
1803.00,0.0036
1790.00,0.0037
1777.00,0.0038
1764.00,0.0038
1751.00,0.0037
1738.00,0.0037
1725.00,0.0046
1712.00,0.0058
1699.00,0.0086
1686.00,0.0176
1673.00,0.0289
1660.00,0.0373
1647.00,0.0364
1634.00,0.0297
1621.00,0.0475
1608.00,0.0320
1595.00,0.0175
1582.00,0.0326
1569.00,0.0187
1556.00,0.0099
1543.00,0.0083
1530.00,0.0077
1517.00,0.0094
1504.00,0.0132
1491.00,0.0189
1478.00,0.0111
1465.00,0.0273
1452.00,0.0239
1439.00,0.0354
1426.00,0.0409
1413.00,0.0288
1400.00,0.0389
1387.00,0.0259
1374.00,0.0216
1361.00,0.0299
1348.00,0.0217
1335.00,0.0167
1322.00,0.0192
1309.00,0.0187
1296.00,0.0318
1283.00,0.0397
1270.00,0.0285
1257.00,0.0187
1244.00,0.0238
1231.00,0.0303
1218.00,0.0242
1205.00,0.0196
1192.00,0.0302
1179.00,0.0153
1166.00,0.0151
1153.00,0.0314
1140.00,0.0136
1127.00,0.0348
1114.00,0.0164
1101.00,0.0221
1088.00,0.0119
1075.00,0.0120
1062.00,0.0210
1049.00,0.0465
1036.00,0.0221
1023.00,0.0314
1010.00,0.0147
997.00,0.0173
984.00,0.0114
971.00,0.0105
958.00,0.0098
945.00,0.0090
932.00,0.0124
919.00,0.0122
906.00,0.0094
893.00,0.0124
880.00,0.0109
867.00,0.0250
854.00,0.0194
841.00,0.0184
828.00,0.0189
815.00,0.0307
802.00,0.0107
789.00,0.0102
776.00,0.0126
763.00,0.0124
750.00,0.0140
737.00,0.0219
724.00,0.0184
711.00,0.0180
698.00,0.0198
685.00,0.0210
672.00,0.0249
659.00,0.0267
646.00,0.0255
633.00,0.0240
620.00,0.0260
607.00,0.0262
594.00,0.0298
581.00,0.0312
568.00,0.0298
555.00,0.0303
542.00,0.0307
529.00,0.0307
516.00,0.0257
503.00,0.0258
490.00,0.0255
477.00,0.0238
464.00,0.0239
451.00,0.0232
438.00,0.0228
425.00,0.0227
412.00,0.0224
400.00,0.0219