File: FTIR/Olivia/2025_06_18_Std_Polystyrene_scan3.csv
Created as New Dataset,Sample 694 By YargerLab Date Wednesday, June 18 2025
cm-1,A
4000.00,0.0017
3987.00,0.0016
3974.00,0.0017
3961.00,0.0016
3948.00,0.0016
3935.00,0.0016
3922.00,0.0016
3909.00,0.0016
3896.00,0.0016
3883.00,0.0017
3870.00,0.0017
3857.00,0.0018
3844.00,0.0016
3831.00,0.0017
3818.00,0.0018
3805.00,0.0018
3792.00,0.0017
3779.00,0.0016
3766.00,0.0016
3753.00,0.0018
3740.00,0.0016
3727.00,0.0016
3714.00,0.0016
3701.00,0.0015
3688.00,0.0017
3675.00,0.0016
3662.00,0.0014
3649.00,0.0017
3636.00,0.0014
3623.00,0.0015
3610.00,0.0015
3597.00,0.0014
3584.00,0.0014
3571.00,0.0014
3558.00,0.0014
3545.00,0.0015
3532.00,0.0015
3519.00,0.0015
3506.00,0.0016
3493.00,0.0016
3480.00,0.0017
3467.00,0.0017
3454.00,0.0017
3441.00,0.0018
3428.00,0.0017
3415.00,0.0016
3402.00,0.0018
3389.00,0.0018
3376.00,0.0016
3363.00,0.0016
3350.00,0.0017
3337.00,0.0017
3324.00,0.0017
3311.00,0.0017
3298.00,0.0017
3285.00,0.0016
3272.00,0.0016
3259.00,0.0016
3246.00,0.0016
3233.00,0.0016
3220.00,0.0016
3207.00,0.0017
3194.00,0.0016
3181.00,0.0016
3168.00,0.0017
3155.00,0.0016
3142.00,0.0016
3129.00,0.0017
3116.00,0.0022
3103.00,0.0046
3090.00,0.0062
3077.00,0.0091
3064.00,0.0134
3051.00,0.0097
3038.00,0.0106
3025.00,0.0305
3012.00,0.0083
2999.00,0.0076
2986.00,0.0035
2973.00,0.0036
2960.00,0.0057
2947.00,0.0115
2934.00,0.0246
2921.00,0.0348
2908.00,0.0267
2895.00,0.0155
2882.00,0.0107
2869.00,0.0083
2856.00,0.0128
2843.00,0.0126
2830.00,0.0045
2817.00,0.0035
2804.00,0.0031
2791.00,0.0028
2778.00,0.0027
2765.00,0.0025
2752.00,0.0024
2739.00,0.0023
2726.00,0.0024
2713.00,0.0024
2700.00,0.0024
2687.00,0.0024
2674.00,0.0023
2661.00,0.0027
2648.00,0.0029
2635.00,0.0029
2622.00,0.0027
2609.00,0.0026
2596.00,0.0025
2583.00,0.0024
2570.00,0.0022
2557.00,0.0020
2544.00,0.0020
2531.00,0.0019
2518.00,0.0019
2505.00,0.0019
2492.00,0.0019
2479.00,0.0017
2466.00,0.0017
2453.00,0.0018
2440.00,0.0016
2427.00,0.0015
2414.00,0.0015
2401.00,0.0012
2388.00,0.0013
2375.00,0.0014
2362.00,0.0017
2349.00,0.0020
2336.00,0.0025
2323.00,0.0034
2310.00,0.0028
2297.00,0.0025
2284.00,0.0027
2271.00,0.0022
2258.00,0.0019
2245.00,0.0017
2232.00,0.0016
2219.00,0.0017
2206.00,0.0014
2193.00,0.0013
2180.00,0.0012
2167.00,0.0021
2154.00,-0.0011
2141.00,-0.0004
2128.00,-0.0002
2115.00,0.0012
2102.00,0.0012
2089.00,0.0011
2076.00,0.0012
2063.00,0.0007
2050.00,0.0016
2037.00,0.0014
2024.00,-0.0001
2011.00,0.0004
1998.00,0.0009
1985.00,0.0019
1972.00,0.0007
1959.00,0.0020
1946.00,0.0040
1933.00,0.0024
1920.00,0.0011
1907.00,0.0013
1894.00,0.0022
1881.00,0.0036
1868.00,0.0041
1855.00,0.0021
1842.00,0.0014
1829.00,0.0019
1816.00,0.0031
1803.00,0.0049
1790.00,0.0029
1777.00,0.0024
1764.00,0.0027
1751.00,0.0044
1738.00,0.0048
1725.00,0.0036
1712.00,0.0030
1699.00,0.0030
1686.00,0.0032
1673.00,0.0036
1660.00,0.0035
1647.00,0.0028
1634.00,0.0028
1621.00,0.0034
1608.00,0.0116
1595.00,0.0153
1582.00,0.0120
1569.00,0.0034
1556.00,0.0033
1543.00,0.0046
1530.00,0.0036
1517.00,0.0032
1504.00,0.0066
1491.00,0.0690
1478.00,0.0083
1465.00,0.0080
1452.00,0.0773
1439.00,0.0273
1426.00,0.0079
1413.00,0.0056
1400.00,0.0054
1387.00,0.0096
1374.00,0.0157
1361.00,0.0146
1348.00,0.0132
1335.00,0.0118
1322.00,0.0126
1309.00,0.0130
1296.00,0.0103
1283.00,0.0093
1270.00,0.0073
1257.00,0.0065
1244.00,0.0070
1231.00,0.0068
1218.00,0.0069
1205.00,0.0089
1192.00,0.0111
1179.00,0.0144
1166.00,0.0083
1153.00,0.0149
1140.00,0.0060
1127.00,0.0056
1114.00,0.0079
1101.00,0.0082
1088.00,0.0105
1075.00,0.0176
1062.00,0.0174
1049.00,0.0113
1036.00,0.0163
1023.00,0.0288
1010.00,0.0150
997.00,0.0119
984.00,0.0136
971.00,0.0135
958.00,0.0128
945.00,0.0124
932.00,0.0091
919.00,0.0108
906.00,0.0265
893.00,0.0095
880.00,0.0068
867.00,0.0060
854.00,0.0066
841.00,0.0137
828.00,0.0061
815.00,0.0059
802.00,0.0069
789.00,0.0133
776.00,0.0340
763.00,0.0906
750.00,0.1170
737.00,0.0486
724.00,0.0134
711.00,0.0304
698.00,0.3383
685.00,0.1071
672.00,0.0479
659.00,0.0283
646.00,0.0179
633.00,0.0199
620.00,0.0242
607.00,0.0185
594.00,0.0206
581.00,0.0264
568.00,0.0450
555.00,0.0660
542.00,0.1038
529.00,0.0727
516.00,0.0357
503.00,0.0239
490.00,0.0176
477.00,0.0150
464.00,0.0148
451.00,0.0128
438.00,0.0114
425.00,0.0118
412.00,0.0094
400.00,0.0070