File: FTIR/Olivia/2025_08_01_1CBN_3PVP29_mortar_dry_scan1.csv
Created as New Dataset,Sample 1020 By YargerLab Date Friday, August 01 2025
cm-1,A
4000.00,0.0067
3987.00,0.0067
3974.00,0.0068
3961.00,0.0067
3948.00,0.0066
3935.00,0.0066
3922.00,0.0067
3909.00,0.0067
3896.00,0.0066
3883.00,0.0065
3870.00,0.0065
3857.00,0.0066
3844.00,0.0066
3831.00,0.0066
3818.00,0.0066
3805.00,0.0066
3792.00,0.0066
3779.00,0.0066
3766.00,0.0066
3753.00,0.0066
3740.00,0.0065
3727.00,0.0064
3714.00,0.0064
3701.00,0.0064
3688.00,0.0064
3675.00,0.0067
3662.00,0.0070
3649.00,0.0073
3636.00,0.0079
3623.00,0.0085
3610.00,0.0093
3597.00,0.0101
3584.00,0.0111
3571.00,0.0123
3558.00,0.0137
3545.00,0.0151
3532.00,0.0165
3519.00,0.0178
3506.00,0.0190
3493.00,0.0202
3480.00,0.0216
3467.00,0.0232
3454.00,0.0251
3441.00,0.0272
3428.00,0.0300
3415.00,0.0331
3402.00,0.0352
3389.00,0.0349
3376.00,0.0330
3363.00,0.0310
3350.00,0.0293
3337.00,0.0283
3324.00,0.0279
3311.00,0.0280
3298.00,0.0287
3285.00,0.0295
3272.00,0.0301
3259.00,0.0309
3246.00,0.0313
3233.00,0.0311
3220.00,0.0304
3207.00,0.0287
3194.00,0.0266
3181.00,0.0244
3168.00,0.0222
3155.00,0.0199
3142.00,0.0180
3129.00,0.0164
3116.00,0.0153
3103.00,0.0140
3090.00,0.0134
3077.00,0.0131
3064.00,0.0126
3051.00,0.0125
3038.00,0.0126
3025.00,0.0123
3012.00,0.0119
2999.00,0.0148
2986.00,0.0200
2973.00,0.0276
2960.00,0.0354
2947.00,0.0288
2934.00,0.0412
2921.00,0.0469
2908.00,0.0325
2895.00,0.0259
2882.00,0.0233
2869.00,0.0273
2856.00,0.0367
2843.00,0.0229
2830.00,0.0156
2817.00,0.0131
2804.00,0.0120
2791.00,0.0112
2778.00,0.0107
2765.00,0.0104
2752.00,0.0103
2739.00,0.0106
2726.00,0.0108
2713.00,0.0104
2700.00,0.0102
2687.00,0.0099
2674.00,0.0098
2661.00,0.0103
2648.00,0.0104
2635.00,0.0102
2622.00,0.0097
2609.00,0.0097
2596.00,0.0098
2583.00,0.0099
2570.00,0.0097
2557.00,0.0094
2544.00,0.0093
2531.00,0.0092
2518.00,0.0090
2505.00,0.0088
2492.00,0.0086
2479.00,0.0085
2466.00,0.0084
2453.00,0.0086
2440.00,0.0084
2427.00,0.0083
2414.00,0.0082
2401.00,0.0082
2388.00,0.0081
2375.00,0.0080
2362.00,0.0081
2349.00,0.0085
2336.00,0.0084
2323.00,0.0094
2310.00,0.0084
2297.00,0.0088
2284.00,0.0093
2271.00,0.0087
2258.00,0.0082
2245.00,0.0082
2232.00,0.0083
2219.00,0.0084
2206.00,0.0084
2193.00,0.0084
2180.00,0.0084
2167.00,0.0091
2154.00,0.0061
2141.00,0.0067
2128.00,0.0068
2115.00,0.0080
2102.00,0.0076
2089.00,0.0076
2076.00,0.0078
2063.00,0.0074
2050.00,0.0080
2037.00,0.0074
2024.00,0.0066
2011.00,0.0065
1998.00,0.0064
1985.00,0.0074
1972.00,0.0057
1959.00,0.0056
1946.00,0.0064
1933.00,0.0064
1920.00,0.0070
1907.00,0.0080
1894.00,0.0074
1881.00,0.0069
1868.00,0.0070
1855.00,0.0071
1842.00,0.0075
1829.00,0.0070
1816.00,0.0068
1803.00,0.0072
1790.00,0.0074
1777.00,0.0075
1764.00,0.0078
1751.00,0.0077
1738.00,0.0080
1725.00,0.0094
1712.00,0.0116
1699.00,0.0155
1686.00,0.0253
1673.00,0.0464
1660.00,0.0694
1647.00,0.0838
1634.00,0.0796
1621.00,0.0966
1608.00,0.0672
1595.00,0.0382
1582.00,0.0571
1569.00,0.0365
1556.00,0.0216
1543.00,0.0182
1530.00,0.0167
1517.00,0.0192
1504.00,0.0258
1491.00,0.0391
1478.00,0.0224
1465.00,0.0562
1452.00,0.0477
1439.00,0.0715
1426.00,0.0818
1413.00,0.0554
1400.00,0.0655
1387.00,0.0481
1374.00,0.0439
1361.00,0.0534
1348.00,0.0424
1335.00,0.0343
1322.00,0.0416
1309.00,0.0387
1296.00,0.0689
1283.00,0.0869
1270.00,0.0645
1257.00,0.0422
1244.00,0.0474
1231.00,0.0630
1218.00,0.0508
1205.00,0.0415
1192.00,0.0602
1179.00,0.0341
1166.00,0.0330
1153.00,0.0584
1140.00,0.0290
1127.00,0.0686
1114.00,0.0377
1101.00,0.0470
1088.00,0.0283
1075.00,0.0284
1062.00,0.0410
1049.00,0.0877
1036.00,0.0488
1023.00,0.0661
1010.00,0.0354
997.00,0.0420
984.00,0.0288
971.00,0.0263
958.00,0.0242
945.00,0.0227
932.00,0.0298
919.00,0.0295
906.00,0.0228
893.00,0.0292
880.00,0.0260
867.00,0.0569
854.00,0.0459
841.00,0.0449
828.00,0.0452
815.00,0.0733
802.00,0.0312
789.00,0.0300
776.00,0.0353
763.00,0.0361
750.00,0.0402
737.00,0.0577
724.00,0.0539
711.00,0.0536
698.00,0.0564
685.00,0.0609
672.00,0.0695
659.00,0.0739
646.00,0.0727
633.00,0.0691
620.00,0.0750
607.00,0.0738
594.00,0.0867
581.00,0.0881
568.00,0.0857
555.00,0.0894
542.00,0.0925
529.00,0.0919
516.00,0.0773
503.00,0.0775
490.00,0.0771
477.00,0.0724
464.00,0.0703
451.00,0.0683
438.00,0.0661
425.00,0.0632
412.00,0.0650
400.00,0.0593