File: FTIR/Olivia/2025_07_29_CBN_PVP90kDa_MC_1to3_Powder_scan1.csv
Created as New Dataset,Sample 954 By YargerLab Date Tuesday, July 29 2025
cm-1,A
4000.00,0.0059
3987.00,0.0058
3974.00,0.0059
3961.00,0.0059
3948.00,0.0058
3935.00,0.0058
3922.00,0.0058
3909.00,0.0059
3896.00,0.0058
3883.00,0.0058
3870.00,0.0057
3857.00,0.0058
3844.00,0.0057
3831.00,0.0057
3818.00,0.0057
3805.00,0.0057
3792.00,0.0057
3779.00,0.0056
3766.00,0.0057
3753.00,0.0057
3740.00,0.0057
3727.00,0.0056
3714.00,0.0055
3701.00,0.0054
3688.00,0.0055
3675.00,0.0054
3662.00,0.0055
3649.00,0.0054
3636.00,0.0055
3623.00,0.0056
3610.00,0.0058
3597.00,0.0059
3584.00,0.0061
3571.00,0.0064
3558.00,0.0067
3545.00,0.0072
3532.00,0.0078
3519.00,0.0084
3506.00,0.0089
3493.00,0.0096
3480.00,0.0108
3467.00,0.0122
3454.00,0.0140
3441.00,0.0160
3428.00,0.0187
3415.00,0.0220
3402.00,0.0242
3389.00,0.0238
3376.00,0.0219
3363.00,0.0203
3350.00,0.0190
3337.00,0.0184
3324.00,0.0184
3311.00,0.0189
3298.00,0.0198
3285.00,0.0210
3272.00,0.0223
3259.00,0.0236
3246.00,0.0248
3233.00,0.0253
3220.00,0.0254
3207.00,0.0244
3194.00,0.0227
3181.00,0.0209
3168.00,0.0191
3155.00,0.0169
3142.00,0.0152
3129.00,0.0138
3116.00,0.0127
3103.00,0.0116
3090.00,0.0113
3077.00,0.0112
3064.00,0.0108
3051.00,0.0110
3038.00,0.0112
3025.00,0.0110
3012.00,0.0101
2999.00,0.0128
2986.00,0.0179
2973.00,0.0266
2960.00,0.0347
2947.00,0.0267
2934.00,0.0424
2921.00,0.0501
2908.00,0.0331
2895.00,0.0248
2882.00,0.0216
2869.00,0.0267
2856.00,0.0396
2843.00,0.0242
2830.00,0.0155
2817.00,0.0128
2804.00,0.0116
2791.00,0.0106
2778.00,0.0100
2765.00,0.0097
2752.00,0.0097
2739.00,0.0100
2726.00,0.0104
2713.00,0.0099
2700.00,0.0097
2687.00,0.0094
2674.00,0.0093
2661.00,0.0099
2648.00,0.0100
2635.00,0.0097
2622.00,0.0092
2609.00,0.0091
2596.00,0.0092
2583.00,0.0093
2570.00,0.0091
2557.00,0.0087
2544.00,0.0086
2531.00,0.0086
2518.00,0.0083
2505.00,0.0080
2492.00,0.0078
2479.00,0.0077
2466.00,0.0075
2453.00,0.0077
2440.00,0.0074
2427.00,0.0073
2414.00,0.0072
2401.00,0.0071
2388.00,0.0070
2375.00,0.0068
2362.00,0.0068
2349.00,0.0068
2336.00,0.0070
2323.00,0.0079
2310.00,0.0070
2297.00,0.0074
2284.00,0.0079
2271.00,0.0073
2258.00,0.0069
2245.00,0.0067
2232.00,0.0070
2219.00,0.0067
2206.00,0.0068
2193.00,0.0066
2180.00,0.0062
2167.00,0.0074
2154.00,0.0042
2141.00,0.0049
2128.00,0.0051
2115.00,0.0059
2102.00,0.0058
2089.00,0.0058
2076.00,0.0061
2063.00,0.0057
2050.00,0.0059
2037.00,0.0057
2024.00,0.0053
2011.00,0.0049
1998.00,0.0050
1985.00,0.0059
1972.00,0.0045
1959.00,0.0045
1946.00,0.0050
1933.00,0.0052
1920.00,0.0055
1907.00,0.0072
1894.00,0.0065
1881.00,0.0059
1868.00,0.0056
1855.00,0.0059
1842.00,0.0060
1829.00,0.0057
1816.00,0.0057
1803.00,0.0059
1790.00,0.0060
1777.00,0.0064
1764.00,0.0063
1751.00,0.0063
1738.00,0.0063
1725.00,0.0074
1712.00,0.0083
1699.00,0.0099
1686.00,0.0157
1673.00,0.0200
1660.00,0.0234
1647.00,0.0226
1634.00,0.0238
1621.00,0.0684
1608.00,0.0516
1595.00,0.0266
1582.00,0.0561
1569.00,0.0344
1556.00,0.0161
1543.00,0.0135
1530.00,0.0120
1517.00,0.0151
1504.00,0.0198
1491.00,0.0300
1478.00,0.0164
1465.00,0.0405
1452.00,0.0354
1439.00,0.0493
1426.00,0.0606
1413.00,0.0436
1400.00,0.0690
1387.00,0.0479
1374.00,0.0373
1361.00,0.0549
1348.00,0.0438
1335.00,0.0321
1322.00,0.0323
1309.00,0.0303
1296.00,0.0501
1283.00,0.0580
1270.00,0.0340
1257.00,0.0248
1244.00,0.0384
1231.00,0.0546
1218.00,0.0392
1205.00,0.0314
1192.00,0.0589
1179.00,0.0252
1166.00,0.0225
1153.00,0.0581
1140.00,0.0232
1127.00,0.0716
1114.00,0.0335
1101.00,0.0455
1088.00,0.0214
1075.00,0.0200
1062.00,0.0360
1049.00,0.0954
1036.00,0.0489
1023.00,0.0734
1010.00,0.0318
997.00,0.0397
984.00,0.0238
971.00,0.0217
958.00,0.0202
945.00,0.0175
932.00,0.0246
919.00,0.0254
906.00,0.0166
893.00,0.0239
880.00,0.0203
867.00,0.0595
854.00,0.0414
841.00,0.0380
828.00,0.0418
815.00,0.0806
802.00,0.0203
789.00,0.0169
776.00,0.0229
763.00,0.0201
750.00,0.0203
737.00,0.0391
724.00,0.0344
711.00,0.0341
698.00,0.0371
685.00,0.0382
672.00,0.0475
659.00,0.0463
646.00,0.0362
633.00,0.0340
620.00,0.0442
607.00,0.0429
594.00,0.0567
581.00,0.0521
568.00,0.0459
555.00,0.0530
542.00,0.0583
529.00,0.0584
516.00,0.0378
503.00,0.0383
490.00,0.0382
477.00,0.0306
464.00,0.0294
451.00,0.0282
438.00,0.0279
425.00,0.0244
412.00,0.0297
400.00,0.0262