File: FTIR/Olivia/2025_07_29_Polystyrene_Std_scan3.csv
Created as New Dataset,Sample 953 By YargerLab Date Tuesday, July 29 2025
cm-1,A
4000.00,0.0022
3987.00,0.0021
3974.00,0.0021
3961.00,0.0021
3948.00,0.0020
3935.00,0.0021
3922.00,0.0020
3909.00,0.0021
3896.00,0.0020
3883.00,0.0019
3870.00,0.0019
3857.00,0.0020
3844.00,0.0019
3831.00,0.0019
3818.00,0.0019
3805.00,0.0019
3792.00,0.0020
3779.00,0.0020
3766.00,0.0019
3753.00,0.0018
3740.00,0.0017
3727.00,0.0018
3714.00,0.0018
3701.00,0.0019
3688.00,0.0018
3675.00,0.0018
3662.00,0.0020
3649.00,0.0019
3636.00,0.0020
3623.00,0.0019
3610.00,0.0019
3597.00,0.0020
3584.00,0.0021
3571.00,0.0022
3558.00,0.0023
3545.00,0.0023
3532.00,0.0025
3519.00,0.0026
3506.00,0.0026
3493.00,0.0027
3480.00,0.0028
3467.00,0.0028
3454.00,0.0029
3441.00,0.0029
3428.00,0.0030
3415.00,0.0029
3402.00,0.0029
3389.00,0.0029
3376.00,0.0029
3363.00,0.0029
3350.00,0.0029
3337.00,0.0028
3324.00,0.0028
3311.00,0.0028
3298.00,0.0027
3285.00,0.0027
3272.00,0.0027
3259.00,0.0027
3246.00,0.0026
3233.00,0.0026
3220.00,0.0026
3207.00,0.0027
3194.00,0.0027
3181.00,0.0025
3168.00,0.0026
3155.00,0.0025
3142.00,0.0025
3129.00,0.0025
3116.00,0.0029
3103.00,0.0050
3090.00,0.0065
3077.00,0.0090
3064.00,0.0129
3051.00,0.0095
3038.00,0.0103
3025.00,0.0278
3012.00,0.0083
2999.00,0.0080
2986.00,0.0050
2973.00,0.0054
2960.00,0.0074
2947.00,0.0124
2934.00,0.0245
2921.00,0.0340
2908.00,0.0258
2895.00,0.0156
2882.00,0.0112
2869.00,0.0092
2856.00,0.0134
2843.00,0.0124
2830.00,0.0051
2817.00,0.0040
2804.00,0.0037
2791.00,0.0033
2778.00,0.0032
2765.00,0.0030
2752.00,0.0029
2739.00,0.0029
2726.00,0.0029
2713.00,0.0029
2700.00,0.0029
2687.00,0.0029
2674.00,0.0028
2661.00,0.0031
2648.00,0.0032
2635.00,0.0032
2622.00,0.0031
2609.00,0.0030
2596.00,0.0028
2583.00,0.0028
2570.00,0.0026
2557.00,0.0025
2544.00,0.0024
2531.00,0.0023
2518.00,0.0023
2505.00,0.0023
2492.00,0.0022
2479.00,0.0021
2466.00,0.0020
2453.00,0.0022
2440.00,0.0020
2427.00,0.0019
2414.00,0.0017
2401.00,0.0017
2388.00,0.0017
2375.00,0.0017
2362.00,0.0018
2349.00,0.0020
2336.00,0.0025
2323.00,0.0032
2310.00,0.0026
2297.00,0.0024
2284.00,0.0026
2271.00,0.0021
2258.00,0.0021
2245.00,0.0020
2232.00,0.0018
2219.00,0.0017
2206.00,0.0015
2193.00,0.0019
2180.00,0.0011
2167.00,0.0022
2154.00,-0.0008
2141.00,-0.0002
2128.00,0.0003
2115.00,0.0013
2102.00,0.0012
2089.00,0.0012
2076.00,0.0015
2063.00,0.0009
2050.00,0.0017
2037.00,0.0015
2024.00,0.0006
2011.00,0.0009
1998.00,0.0007
1985.00,0.0018
1972.00,0.0009
1959.00,0.0020
1946.00,0.0041
1933.00,0.0028
1920.00,0.0016
1907.00,0.0014
1894.00,0.0022
1881.00,0.0035
1868.00,0.0043
1855.00,0.0022
1842.00,0.0014
1829.00,0.0021
1816.00,0.0031
1803.00,0.0049
1790.00,0.0030
1777.00,0.0025
1764.00,0.0028
1751.00,0.0048
1738.00,0.0061
1725.00,0.0054
1712.00,0.0045
1699.00,0.0049
1686.00,0.0070
1673.00,0.0072
1660.00,0.0069
1647.00,0.0056
1634.00,0.0043
1621.00,0.0046
1608.00,0.0113
1595.00,0.0141
1582.00,0.0112
1569.00,0.0039
1556.00,0.0034
1543.00,0.0047
1530.00,0.0034
1517.00,0.0034
1504.00,0.0060
1491.00,0.0587
1478.00,0.0080
1465.00,0.0087
1452.00,0.0667
1439.00,0.0249
1426.00,0.0090
1413.00,0.0064
1400.00,0.0059
1387.00,0.0095
1374.00,0.0148
1361.00,0.0138
1348.00,0.0122
1335.00,0.0111
1322.00,0.0119
1309.00,0.0121
1296.00,0.0107
1283.00,0.0097
1270.00,0.0079
1257.00,0.0069
1244.00,0.0072
1231.00,0.0070
1218.00,0.0071
1205.00,0.0087
1192.00,0.0105
1179.00,0.0132
1166.00,0.0084
1153.00,0.0135
1140.00,0.0061
1127.00,0.0055
1114.00,0.0073
1101.00,0.0075
1088.00,0.0091
1075.00,0.0147
1062.00,0.0149
1049.00,0.0100
1036.00,0.0138
1023.00,0.0233
1010.00,0.0124
997.00,0.0098
984.00,0.0111
971.00,0.0109
958.00,0.0104
945.00,0.0101
932.00,0.0076
919.00,0.0088
906.00,0.0219
893.00,0.0078
880.00,0.0057
867.00,0.0051
854.00,0.0059
841.00,0.0113
828.00,0.0054
815.00,0.0053
802.00,0.0059
789.00,0.0111
776.00,0.0278
763.00,0.0735
750.00,0.0958
737.00,0.0401
724.00,0.0112
711.00,0.0248
698.00,0.2369
685.00,0.0878
672.00,0.0389
659.00,0.0234
646.00,0.0156
633.00,0.0169
620.00,0.0201
607.00,0.0158
594.00,0.0175
581.00,0.0226
568.00,0.0379
555.00,0.0537
542.00,0.0846
529.00,0.0593
516.00,0.0284
503.00,0.0184
490.00,0.0145
477.00,0.0124
464.00,0.0111
451.00,0.0103
438.00,0.0107
425.00,0.0095
412.00,0.0080
400.00,0.0091