File: FTIR/Olivia/2025_08_06_1CBN_3PVP10_MP_Powder_Sigma1.csv
Created as New Dataset,Sample 005 By YargerLab Date Wednesday, August 06 2025
cm-1,A
4000.00,0.0007
3987.00,0.0007
3974.00,0.0007
3961.00,0.0006
3948.00,0.0006
3935.00,0.0006
3922.00,0.0006
3909.00,0.0006
3896.00,0.0005
3883.00,0.0004
3870.00,0.0004
3857.00,0.0004
3844.00,0.0005
3831.00,0.0006
3818.00,0.0004
3805.00,0.0005
3792.00,0.0007
3779.00,0.0007
3766.00,0.0006
3753.00,0.0005
3740.00,0.0004
3727.00,0.0005
3714.00,0.0005
3701.00,0.0007
3688.00,0.0006
3675.00,0.0006
3662.00,0.0012
3649.00,0.0011
3636.00,0.0017
3623.00,0.0021
3610.00,0.0025
3597.00,0.0033
3584.00,0.0039
3571.00,0.0050
3558.00,0.0059
3545.00,0.0067
3532.00,0.0077
3519.00,0.0084
3506.00,0.0091
3493.00,0.0096
3480.00,0.0099
3467.00,0.0105
3454.00,0.0109
3441.00,0.0112
3428.00,0.0115
3415.00,0.0118
3402.00,0.0122
3389.00,0.0123
3376.00,0.0120
3363.00,0.0113
3350.00,0.0107
3337.00,0.0101
3324.00,0.0097
3311.00,0.0095
3298.00,0.0093
3285.00,0.0092
3272.00,0.0090
3259.00,0.0088
3246.00,0.0085
3233.00,0.0082
3220.00,0.0079
3207.00,0.0074
3194.00,0.0070
3181.00,0.0064
3168.00,0.0058
3155.00,0.0053
3142.00,0.0048
3129.00,0.0043
3116.00,0.0039
3103.00,0.0037
3090.00,0.0033
3077.00,0.0031
3064.00,0.0029
3051.00,0.0027
3038.00,0.0025
3025.00,0.0024
3012.00,0.0028
2999.00,0.0042
2986.00,0.0055
2973.00,0.0076
2960.00,0.0084
2947.00,0.0083
2934.00,0.0092
2921.00,0.0089
2908.00,0.0075
2895.00,0.0071
2882.00,0.0069
2869.00,0.0067
2856.00,0.0067
2843.00,0.0046
2830.00,0.0034
2817.00,0.0027
2804.00,0.0023
2791.00,0.0021
2778.00,0.0020
2765.00,0.0019
2752.00,0.0018
2739.00,0.0019
2726.00,0.0019
2713.00,0.0017
2700.00,0.0017
2687.00,0.0016
2674.00,0.0016
2661.00,0.0020
2648.00,0.0021
2635.00,0.0020
2622.00,0.0019
2609.00,0.0018
2596.00,0.0017
2583.00,0.0017
2570.00,0.0016
2557.00,0.0015
2544.00,0.0014
2531.00,0.0012
2518.00,0.0012
2505.00,0.0011
2492.00,0.0012
2479.00,0.0011
2466.00,0.0012
2453.00,0.0012
2440.00,0.0011
2427.00,0.0010
2414.00,0.0010
2401.00,0.0009
2388.00,0.0008
2375.00,0.0006
2362.00,0.0007
2349.00,0.0008
2336.00,0.0011
2323.00,0.0022
2310.00,0.0015
2297.00,0.0019
2284.00,0.0023
2271.00,0.0019
2258.00,0.0016
2245.00,0.0016
2232.00,0.0015
2219.00,0.0017
2206.00,0.0016
2193.00,0.0020
2180.00,0.0014
2167.00,0.0025
2154.00,-0.0006
2141.00,-0.0001
2128.00,0.0002
2115.00,0.0017
2102.00,0.0014
2089.00,0.0013
2076.00,0.0015
2063.00,0.0012
2050.00,0.0022
2037.00,0.0015
2024.00,0.0007
2011.00,0.0009
1998.00,0.0008
1985.00,0.0015
1972.00,0.0001
1959.00,-0.0005
1946.00,0.0001
1933.00,-0.0000
1920.00,0.0005
1907.00,0.0006
1894.00,0.0005
1881.00,0.0005
1868.00,0.0004
1855.00,0.0006
1842.00,0.0004
1829.00,0.0005
1816.00,0.0003
1803.00,0.0006
1790.00,0.0007
1777.00,0.0008
1764.00,0.0009
1751.00,0.0010
1738.00,0.0012
1725.00,0.0018
1712.00,0.0027
1699.00,0.0058
1686.00,0.0182
1673.00,0.0344
1660.00,0.0505
1647.00,0.0598
1634.00,0.0461
1621.00,0.0346
1608.00,0.0224
1595.00,0.0132
1582.00,0.0122
1569.00,0.0086
1556.00,0.0057
1543.00,0.0049
1530.00,0.0045
1517.00,0.0049
1504.00,0.0079
1491.00,0.0135
1478.00,0.0076
1465.00,0.0224
1452.00,0.0184
1439.00,0.0310
1426.00,0.0341
1413.00,0.0214
1400.00,0.0140
1387.00,0.0122
1374.00,0.0149
1361.00,0.0135
1348.00,0.0103
1335.00,0.0097
1322.00,0.0148
1309.00,0.0149
1296.00,0.0276
1283.00,0.0419
1270.00,0.0364
1257.00,0.0208
1244.00,0.0180
1231.00,0.0208
1218.00,0.0205
1205.00,0.0169
1192.00,0.0163
1179.00,0.0133
1166.00,0.0142
1153.00,0.0145
1140.00,0.0100
1127.00,0.0137
1114.00,0.0108
1101.00,0.0124
1088.00,0.0096
1075.00,0.0100
1062.00,0.0116
1049.00,0.0164
1036.00,0.0126
1023.00,0.0155
1010.00,0.0115
997.00,0.0116
984.00,0.0087
971.00,0.0078
958.00,0.0076
945.00,0.0065
932.00,0.0094
919.00,0.0081
906.00,0.0082
893.00,0.0091
880.00,0.0082
867.00,0.0113
854.00,0.0133
841.00,0.0148
828.00,0.0127
815.00,0.0158
802.00,0.0102
789.00,0.0108
776.00,0.0128
763.00,0.0146
750.00,0.0175
737.00,0.0229
724.00,0.0214
711.00,0.0209
698.00,0.0224
685.00,0.0242
672.00,0.0279
659.00,0.0318
646.00,0.0353
633.00,0.0333
620.00,0.0336
607.00,0.0336
594.00,0.0365
581.00,0.0394
568.00,0.0409
555.00,0.0403
542.00,0.0400
529.00,0.0401
516.00,0.0382
503.00,0.0383
490.00,0.0386
477.00,0.0394
464.00,0.0389
451.00,0.0368
438.00,0.0359
425.00,0.0340
412.00,0.0342
400.00,0.0352