File: FTIR/Olivia/2025_08_06_1CBN_3PVP29_MP_Powder_Scan2.csv
Created as New Dataset,Sample 1092 By YargerLab Date Wednesday, August 06 2025
cm-1,A
4000.00,0.0003
3987.00,0.0003
3974.00,0.0003
3961.00,0.0003
3948.00,0.0003
3935.00,0.0004
3922.00,0.0003
3909.00,0.0004
3896.00,0.0005
3883.00,0.0004
3870.00,0.0006
3857.00,0.0006
3844.00,0.0006
3831.00,0.0006
3818.00,0.0007
3805.00,0.0006
3792.00,0.0003
3779.00,0.0004
3766.00,0.0004
3753.00,0.0008
3740.00,0.0008
3727.00,0.0005
3714.00,0.0005
3701.00,0.0003
3688.00,0.0005
3675.00,0.0007
3662.00,0.0003
3649.00,0.0008
3636.00,0.0006
3623.00,0.0007
3610.00,0.0011
3597.00,0.0011
3584.00,0.0014
3571.00,0.0016
3558.00,0.0018
3545.00,0.0021
3532.00,0.0024
3519.00,0.0026
3506.00,0.0028
3493.00,0.0030
3480.00,0.0032
3467.00,0.0034
3454.00,0.0036
3441.00,0.0039
3428.00,0.0041
3415.00,0.0046
3402.00,0.0051
3389.00,0.0051
3376.00,0.0047
3363.00,0.0042
3350.00,0.0037
3337.00,0.0035
3324.00,0.0032
3311.00,0.0031
3298.00,0.0032
3285.00,0.0033
3272.00,0.0034
3259.00,0.0035
3246.00,0.0036
3233.00,0.0038
3220.00,0.0039
3207.00,0.0037
3194.00,0.0034
3181.00,0.0032
3168.00,0.0027
3155.00,0.0024
3142.00,0.0021
3129.00,0.0018
3116.00,0.0016
3103.00,0.0014
3090.00,0.0013
3077.00,0.0012
3064.00,0.0012
3051.00,0.0011
3038.00,0.0011
3025.00,0.0011
3012.00,0.0012
2999.00,0.0020
2986.00,0.0023
2973.00,0.0035
2960.00,0.0046
2947.00,0.0043
2934.00,0.0060
2921.00,0.0064
2908.00,0.0046
2895.00,0.0038
2882.00,0.0036
2869.00,0.0037
2856.00,0.0050
2843.00,0.0031
2830.00,0.0019
2817.00,0.0014
2804.00,0.0012
2791.00,0.0011
2778.00,0.0010
2765.00,0.0009
2752.00,0.0009
2739.00,0.0010
2726.00,0.0010
2713.00,0.0009
2700.00,0.0009
2687.00,0.0008
2674.00,0.0008
2661.00,0.0012
2648.00,0.0013
2635.00,0.0013
2622.00,0.0012
2609.00,0.0010
2596.00,0.0010
2583.00,0.0009
2570.00,0.0008
2557.00,0.0008
2544.00,0.0007
2531.00,0.0006
2518.00,0.0005
2505.00,0.0005
2492.00,0.0005
2479.00,0.0004
2466.00,0.0005
2453.00,0.0006
2440.00,0.0004
2427.00,0.0003
2414.00,0.0003
2401.00,0.0001
2388.00,0.0001
2375.00,-0.0003
2362.00,-0.0003
2349.00,-0.0002
2336.00,0.0002
2323.00,0.0013
2310.00,0.0005
2297.00,0.0008
2284.00,0.0013
2271.00,0.0011
2258.00,0.0009
2245.00,0.0007
2232.00,0.0008
2219.00,0.0007
2206.00,0.0008
2193.00,0.0011
2180.00,0.0008
2167.00,0.0016
2154.00,-0.0012
2141.00,-0.0009
2128.00,-0.0006
2115.00,0.0005
2102.00,0.0005
2089.00,0.0004
2076.00,0.0007
2063.00,0.0004
2050.00,0.0011
2037.00,0.0009
2024.00,-0.0003
2011.00,-0.0002
1998.00,0.0002
1985.00,0.0008
1972.00,-0.0006
1959.00,-0.0010
1946.00,-0.0007
1933.00,-0.0004
1920.00,-0.0002
1907.00,0.0001
1894.00,0.0001
1881.00,-0.0001
1868.00,-0.0001
1855.00,0.0000
1842.00,0.0000
1829.00,0.0001
1816.00,-0.0002
1803.00,0.0003
1790.00,0.0003
1777.00,0.0003
1764.00,0.0005
1751.00,0.0006
1738.00,0.0008
1725.00,0.0012
1712.00,0.0018
1699.00,0.0042
1686.00,0.0111
1673.00,0.0173
1660.00,0.0221
1647.00,0.0263
1634.00,0.0199
1621.00,0.0167
1608.00,0.0116
1595.00,0.0062
1582.00,0.0073
1569.00,0.0050
1556.00,0.0027
1543.00,0.0023
1530.00,0.0020
1517.00,0.0023
1504.00,0.0039
1491.00,0.0071
1478.00,0.0036
1465.00,0.0108
1452.00,0.0089
1439.00,0.0148
1426.00,0.0176
1413.00,0.0113
1400.00,0.0089
1387.00,0.0073
1374.00,0.0077
1361.00,0.0079
1348.00,0.0066
1335.00,0.0052
1322.00,0.0073
1309.00,0.0073
1296.00,0.0139
1283.00,0.0212
1270.00,0.0180
1257.00,0.0106
1244.00,0.0102
1231.00,0.0118
1218.00,0.0107
1205.00,0.0087
1192.00,0.0098
1179.00,0.0067
1166.00,0.0061
1153.00,0.0081
1140.00,0.0044
1127.00,0.0084
1114.00,0.0059
1101.00,0.0073
1088.00,0.0046
1075.00,0.0048
1062.00,0.0056
1049.00,0.0123
1036.00,0.0081
1023.00,0.0120
1010.00,0.0072
997.00,0.0074
984.00,0.0050
971.00,0.0043
958.00,0.0035
945.00,0.0017
932.00,0.0046
919.00,0.0043
906.00,0.0042
893.00,0.0047
880.00,0.0039
867.00,0.0074
854.00,0.0074
841.00,0.0075
828.00,0.0065
815.00,0.0094
802.00,0.0048
789.00,0.0048
776.00,0.0057
763.00,0.0064
750.00,0.0073
737.00,0.0102
724.00,0.0098
711.00,0.0095
698.00,0.0102
685.00,0.0108
672.00,0.0133
659.00,0.0148
646.00,0.0155
633.00,0.0144
620.00,0.0148
607.00,0.0149
594.00,0.0171
581.00,0.0172
568.00,0.0182
555.00,0.0183
542.00,0.0190
529.00,0.0185
516.00,0.0171
503.00,0.0167
490.00,0.0172
477.00,0.0168
464.00,0.0164
451.00,0.0163
438.00,0.0153
425.00,0.0141
412.00,0.0148
400.00,0.0127