File: FTIR/Olivia/2025_08_01_1CBN_3PVP90_mortar_dry_scan3.csv
Created as New Dataset,Sample 1028 By YargerLab Date Friday, August 01 2025
cm-1,A
4000.00,0.0029
3987.00,0.0029
3974.00,0.0030
3961.00,0.0029
3948.00,0.0029
3935.00,0.0029
3922.00,0.0029
3909.00,0.0029
3896.00,0.0028
3883.00,0.0028
3870.00,0.0027
3857.00,0.0028
3844.00,0.0029
3831.00,0.0028
3818.00,0.0027
3805.00,0.0028
3792.00,0.0028
3779.00,0.0027
3766.00,0.0028
3753.00,0.0028
3740.00,0.0027
3727.00,0.0027
3714.00,0.0026
3701.00,0.0026
3688.00,0.0026
3675.00,0.0026
3662.00,0.0030
3649.00,0.0029
3636.00,0.0033
3623.00,0.0036
3610.00,0.0040
3597.00,0.0043
3584.00,0.0049
3571.00,0.0055
3558.00,0.0063
3545.00,0.0071
3532.00,0.0080
3519.00,0.0088
3506.00,0.0095
3493.00,0.0104
3480.00,0.0116
3467.00,0.0132
3454.00,0.0150
3441.00,0.0171
3428.00,0.0200
3415.00,0.0233
3402.00,0.0254
3389.00,0.0247
3376.00,0.0225
3363.00,0.0204
3350.00,0.0189
3337.00,0.0181
3324.00,0.0180
3311.00,0.0183
3298.00,0.0192
3285.00,0.0205
3272.00,0.0215
3259.00,0.0228
3246.00,0.0237
3233.00,0.0238
3220.00,0.0235
3207.00,0.0219
3194.00,0.0198
3181.00,0.0176
3168.00,0.0155
3155.00,0.0132
3142.00,0.0114
3129.00,0.0100
3116.00,0.0090
3103.00,0.0078
3090.00,0.0076
3077.00,0.0075
3064.00,0.0072
3051.00,0.0074
3038.00,0.0077
3025.00,0.0074
3012.00,0.0070
2999.00,0.0101
2986.00,0.0146
2973.00,0.0217
2960.00,0.0301
2947.00,0.0240
2934.00,0.0406
2921.00,0.0450
2908.00,0.0270
2895.00,0.0194
2882.00,0.0169
2869.00,0.0218
2856.00,0.0340
2843.00,0.0166
2830.00,0.0092
2817.00,0.0070
2804.00,0.0062
2791.00,0.0054
2778.00,0.0050
2765.00,0.0048
2752.00,0.0049
2739.00,0.0052
2726.00,0.0055
2713.00,0.0051
2700.00,0.0050
2687.00,0.0047
2674.00,0.0047
2661.00,0.0052
2648.00,0.0055
2635.00,0.0053
2622.00,0.0048
2609.00,0.0048
2596.00,0.0050
2583.00,0.0050
2570.00,0.0048
2557.00,0.0045
2544.00,0.0044
2531.00,0.0043
2518.00,0.0040
2505.00,0.0039
2492.00,0.0038
2479.00,0.0036
2466.00,0.0036
2453.00,0.0038
2440.00,0.0036
2427.00,0.0034
2414.00,0.0033
2401.00,0.0032
2388.00,0.0031
2375.00,0.0028
2362.00,0.0026
2349.00,0.0026
2336.00,0.0031
2323.00,0.0043
2310.00,0.0033
2297.00,0.0038
2284.00,0.0044
2271.00,0.0038
2258.00,0.0032
2245.00,0.0033
2232.00,0.0034
2219.00,0.0033
2206.00,0.0035
2193.00,0.0034
2180.00,0.0033
2167.00,0.0044
2154.00,0.0004
2141.00,0.0017
2128.00,0.0018
2115.00,0.0030
2102.00,0.0027
2089.00,0.0026
2076.00,0.0030
2063.00,0.0027
2050.00,0.0029
2037.00,0.0026
2024.00,0.0022
2011.00,0.0018
1998.00,0.0022
1985.00,0.0028
1972.00,0.0014
1959.00,0.0013
1946.00,0.0018
1933.00,0.0020
1920.00,0.0025
1907.00,0.0035
1894.00,0.0030
1881.00,0.0025
1868.00,0.0026
1855.00,0.0028
1842.00,0.0030
1829.00,0.0028
1816.00,0.0026
1803.00,0.0031
1790.00,0.0032
1777.00,0.0034
1764.00,0.0036
1751.00,0.0036
1738.00,0.0039
1725.00,0.0049
1712.00,0.0062
1699.00,0.0104
1686.00,0.0207
1673.00,0.0332
1660.00,0.0435
1647.00,0.0514
1634.00,0.0505
1621.00,0.0783
1608.00,0.0524
1595.00,0.0269
1582.00,0.0485
1569.00,0.0276
1556.00,0.0129
1543.00,0.0100
1530.00,0.0090
1517.00,0.0118
1504.00,0.0180
1491.00,0.0272
1478.00,0.0142
1465.00,0.0402
1452.00,0.0344
1439.00,0.0522
1426.00,0.0624
1413.00,0.0431
1400.00,0.0567
1387.00,0.0376
1374.00,0.0300
1361.00,0.0440
1348.00,0.0319
1335.00,0.0229
1322.00,0.0273
1309.00,0.0263
1296.00,0.0474
1283.00,0.0627
1270.00,0.0452
1257.00,0.0297
1244.00,0.0370
1231.00,0.0482
1218.00,0.0373
1205.00,0.0297
1192.00,0.0461
1179.00,0.0216
1166.00,0.0192
1153.00,0.0424
1140.00,0.0160
1127.00,0.0496
1114.00,0.0211
1101.00,0.0303
1088.00,0.0137
1075.00,0.0148
1062.00,0.0253
1049.00,0.0733
1036.00,0.0338
1023.00,0.0495
1010.00,0.0212
997.00,0.0247
984.00,0.0142
971.00,0.0128
958.00,0.0074
945.00,0.0068
932.00,0.0155
919.00,0.0155
906.00,0.0117
893.00,0.0170
880.00,0.0146
867.00,0.0378
854.00,0.0299
841.00,0.0277
828.00,0.0270
815.00,0.0479
802.00,0.0143
789.00,0.0144
776.00,0.0190
763.00,0.0199
750.00,0.0231
737.00,0.0372
724.00,0.0325
711.00,0.0323
698.00,0.0356
685.00,0.0375
672.00,0.0456
659.00,0.0484
646.00,0.0485
633.00,0.0465
620.00,0.0506
607.00,0.0511
594.00,0.0588
581.00,0.0604
568.00,0.0602
555.00,0.0613
542.00,0.0625
529.00,0.0618
516.00,0.0531
503.00,0.0536
490.00,0.0522
477.00,0.0500
464.00,0.0503
451.00,0.0496
438.00,0.0501
425.00,0.0483
412.00,0.0499
400.00,0.0457