File: FTIR/Olivia/2025_08_12_Polystyrene_film_scan2.csv
Created as New Dataset,Sample 039 By YargerLab Date Tuesday, August 12 2025
cm-1,A
4000.00,0.0000
3987.00,-0.0000
3974.00,-0.0000
3961.00,-0.0001
3948.00,-0.0001
3935.00,-0.0000
3922.00,-0.0001
3909.00,-0.0000
3896.00,-0.0001
3883.00,-0.0003
3870.00,-0.0002
3857.00,-0.0002
3844.00,-0.0001
3831.00,-0.0001
3818.00,-0.0002
3805.00,-0.0001
3792.00,-0.0000
3779.00,-0.0000
3766.00,-0.0000
3753.00,-0.0001
3740.00,-0.0003
3727.00,-0.0002
3714.00,-0.0002
3701.00,-0.0001
3688.00,-0.0002
3675.00,-0.0003
3662.00,-0.0000
3649.00,-0.0004
3636.00,-0.0002
3623.00,-0.0002
3610.00,-0.0003
3597.00,-0.0002
3584.00,-0.0003
3571.00,-0.0001
3558.00,-0.0001
3545.00,-0.0001
3532.00,-0.0000
3519.00,0.0000
3506.00,-0.0001
3493.00,-0.0000
3480.00,0.0000
3467.00,0.0001
3454.00,0.0000
3441.00,0.0001
3428.00,0.0001
3415.00,0.0001
3402.00,0.0001
3389.00,0.0001
3376.00,0.0001
3363.00,0.0002
3350.00,0.0001
3337.00,0.0002
3324.00,0.0002
3311.00,0.0002
3298.00,0.0003
3285.00,0.0002
3272.00,0.0002
3259.00,0.0002
3246.00,0.0002
3233.00,0.0002
3220.00,0.0001
3207.00,0.0002
3194.00,0.0002
3181.00,0.0001
3168.00,0.0001
3155.00,0.0001
3142.00,0.0001
3129.00,0.0001
3116.00,0.0002
3103.00,0.0007
3090.00,0.0010
3077.00,0.0017
3064.00,0.0025
3051.00,0.0020
3038.00,0.0020
3025.00,0.0062
3012.00,0.0015
2999.00,0.0014
2986.00,0.0005
2973.00,0.0007
2960.00,0.0013
2947.00,0.0027
2934.00,0.0056
2921.00,0.0079
2908.00,0.0060
2895.00,0.0033
2882.00,0.0022
2869.00,0.0017
2856.00,0.0028
2843.00,0.0027
2830.00,0.0006
2817.00,0.0004
2804.00,0.0003
2791.00,0.0002
2778.00,0.0002
2765.00,0.0001
2752.00,0.0001
2739.00,0.0001
2726.00,0.0001
2713.00,0.0001
2700.00,0.0001
2687.00,0.0001
2674.00,0.0001
2661.00,0.0004
2648.00,0.0005
2635.00,0.0005
2622.00,0.0004
2609.00,0.0004
2596.00,0.0002
2583.00,0.0002
2570.00,0.0001
2557.00,0.0000
2544.00,0.0000
2531.00,0.0000
2518.00,-0.0000
2505.00,-0.0000
2492.00,-0.0001
2479.00,-0.0001
2466.00,-0.0001
2453.00,0.0000
2440.00,-0.0002
2427.00,-0.0003
2414.00,-0.0003
2401.00,-0.0005
2388.00,-0.0005
2375.00,-0.0007
2362.00,-0.0006
2349.00,-0.0004
2336.00,-0.0002
2323.00,0.0008
2310.00,0.0001
2297.00,0.0004
2284.00,0.0009
2271.00,0.0005
2258.00,0.0002
2245.00,0.0001
2232.00,0.0000
2219.00,0.0000
2206.00,-0.0001
2193.00,0.0002
2180.00,-0.0005
2167.00,0.0008
2154.00,-0.0021
2141.00,-0.0017
2128.00,-0.0014
2115.00,-0.0004
2102.00,-0.0004
2089.00,-0.0003
2076.00,-0.0001
2063.00,-0.0004
2050.00,0.0008
2037.00,-0.0002
2024.00,-0.0009
2011.00,-0.0008
1998.00,-0.0005
1985.00,0.0001
1972.00,-0.0008
1959.00,-0.0008
1946.00,-0.0001
1933.00,-0.0005
1920.00,-0.0004
1907.00,-0.0006
1894.00,-0.0004
1881.00,0.0001
1868.00,0.0002
1855.00,-0.0003
1842.00,-0.0004
1829.00,-0.0003
1816.00,-0.0001
1803.00,0.0006
1790.00,0.0001
1777.00,-0.0000
1764.00,0.0001
1751.00,0.0007
1738.00,0.0009
1725.00,0.0006
1712.00,0.0004
1699.00,0.0005
1686.00,0.0007
1673.00,0.0010
1660.00,0.0011
1647.00,0.0007
1634.00,0.0005
1621.00,0.0010
1608.00,0.0028
1595.00,0.0037
1582.00,0.0031
1569.00,0.0006
1556.00,0.0005
1543.00,0.0011
1530.00,0.0006
1517.00,0.0006
1504.00,0.0014
1491.00,0.0189
1478.00,0.0022
1465.00,0.0024
1452.00,0.0199
1439.00,0.0077
1426.00,0.0022
1413.00,0.0015
1400.00,0.0015
1387.00,0.0024
1374.00,0.0041
1361.00,0.0040
1348.00,0.0034
1335.00,0.0030
1322.00,0.0033
1309.00,0.0035
1296.00,0.0030
1283.00,0.0027
1270.00,0.0019
1257.00,0.0016
1244.00,0.0018
1231.00,0.0019
1218.00,0.0020
1205.00,0.0024
1192.00,0.0034
1179.00,0.0042
1166.00,0.0024
1153.00,0.0045
1140.00,0.0016
1127.00,0.0017
1114.00,0.0023
1101.00,0.0025
1088.00,0.0030
1075.00,0.0054
1062.00,0.0056
1049.00,0.0036
1036.00,0.0048
1023.00,0.0086
1010.00,0.0045
997.00,0.0035
984.00,0.0041
971.00,0.0041
958.00,0.0038
945.00,0.0039
932.00,0.0027
919.00,0.0033
906.00,0.0087
893.00,0.0029
880.00,0.0019
867.00,0.0017
854.00,0.0020
841.00,0.0043
828.00,0.0018
815.00,0.0017
802.00,0.0020
789.00,0.0043
776.00,0.0112
763.00,0.0298
750.00,0.0396
737.00,0.0169
724.00,0.0045
711.00,0.0102
698.00,0.1036
685.00,0.0445
672.00,0.0189
659.00,0.0106
646.00,0.0062
633.00,0.0069
620.00,0.0085
607.00,0.0065
594.00,0.0073
581.00,0.0101
568.00,0.0172
555.00,0.0247
542.00,0.0402
529.00,0.0306
516.00,0.0142
503.00,0.0097
490.00,0.0075
477.00,0.0061
464.00,0.0052
451.00,0.0051
438.00,0.0049
425.00,0.0044
412.00,0.0034
400.00,0.0055