File: FTIR/Olivia/2025_08_15_1CBG_3PVP29_silicone_scan2.csv
Created as New Dataset,Sample 119 By YargerLab Date Friday, August 15 2025
cm-1,A
4000.00,0.0020
3987.00,0.0020
3974.00,0.0019
3961.00,0.0020
3948.00,0.0019
3935.00,0.0019
3922.00,0.0017
3909.00,0.0018
3896.00,0.0017
3883.00,0.0017
3870.00,0.0017
3857.00,0.0016
3844.00,0.0018
3831.00,0.0018
3818.00,0.0016
3805.00,0.0017
3792.00,0.0018
3779.00,0.0019
3766.00,0.0018
3753.00,0.0016
3740.00,0.0016
3727.00,0.0016
3714.00,0.0017
3701.00,0.0018
3688.00,0.0020
3675.00,0.0026
3662.00,0.0031
3649.00,0.0036
3636.00,0.0045
3623.00,0.0055
3610.00,0.0068
3597.00,0.0084
3584.00,0.0101
3571.00,0.0119
3558.00,0.0140
3545.00,0.0157
3532.00,0.0172
3519.00,0.0189
3506.00,0.0205
3493.00,0.0220
3480.00,0.0236
3467.00,0.0249
3454.00,0.0259
3441.00,0.0270
3428.00,0.0279
3415.00,0.0289
3402.00,0.0297
3389.00,0.0308
3376.00,0.0316
3363.00,0.0325
3350.00,0.0331
3337.00,0.0338
3324.00,0.0344
3311.00,0.0348
3298.00,0.0353
3285.00,0.0359
3272.00,0.0353
3259.00,0.0353
3246.00,0.0347
3233.00,0.0340
3220.00,0.0334
3207.00,0.0326
3194.00,0.0317
3181.00,0.0305
3168.00,0.0290
3155.00,0.0273
3142.00,0.0258
3129.00,0.0247
3116.00,0.0233
3103.00,0.0217
3090.00,0.0200
3077.00,0.0186
3064.00,0.0176
3051.00,0.0168
3038.00,0.0161
3025.00,0.0161
3012.00,0.0170
2999.00,0.0222
2986.00,0.0322
2973.00,0.0402
2960.00,0.0505
2947.00,0.0510
2934.00,0.0558
2921.00,0.0616
2908.00,0.0526
2895.00,0.0458
2882.00,0.0428
2869.00,0.0422
2856.00,0.0424
2843.00,0.0299
2830.00,0.0217
2817.00,0.0163
2804.00,0.0126
2791.00,0.0108
2778.00,0.0098
2765.00,0.0091
2752.00,0.0089
2739.00,0.0090
2726.00,0.0091
2713.00,0.0088
2700.00,0.0085
2687.00,0.0082
2674.00,0.0078
2661.00,0.0078
2648.00,0.0075
2635.00,0.0070
2622.00,0.0065
2609.00,0.0061
2596.00,0.0061
2583.00,0.0060
2570.00,0.0056
2557.00,0.0054
2544.00,0.0052
2531.00,0.0052
2518.00,0.0048
2505.00,0.0046
2492.00,0.0044
2479.00,0.0041
2466.00,0.0040
2453.00,0.0040
2440.00,0.0039
2427.00,0.0037
2414.00,0.0038
2401.00,0.0038
2388.00,0.0036
2375.00,0.0033
2362.00,0.0034
2349.00,0.0035
2336.00,0.0038
2323.00,0.0046
2310.00,0.0038
2297.00,0.0041
2284.00,0.0043
2271.00,0.0039
2258.00,0.0037
2245.00,0.0037
2232.00,0.0037
2219.00,0.0038
2206.00,0.0036
2193.00,0.0040
2180.00,0.0033
2167.00,0.0043
2154.00,0.0014
2141.00,0.0022
2128.00,0.0026
2115.00,0.0034
2102.00,0.0030
2089.00,0.0027
2076.00,0.0029
2063.00,0.0026
2050.00,0.0035
2037.00,0.0028
2024.00,0.0020
2011.00,0.0021
1998.00,0.0019
1985.00,0.0029
1972.00,0.0013
1959.00,0.0013
1946.00,0.0021
1933.00,0.0021
1920.00,0.0026
1907.00,0.0027
1894.00,0.0026
1881.00,0.0026
1868.00,0.0029
1855.00,0.0028
1842.00,0.0030
1829.00,0.0032
1816.00,0.0031
1803.00,0.0035
1790.00,0.0037
1777.00,0.0043
1764.00,0.0050
1751.00,0.0062
1738.00,0.0077
1725.00,0.0113
1712.00,0.0194
1699.00,0.0511
1686.00,0.1357
1673.00,0.2072
1660.00,0.2716
1647.00,0.2644
1634.00,0.1408
1621.00,0.0893
1608.00,0.0629
1595.00,0.0676
1582.00,0.0403
1569.00,0.0260
1556.00,0.0213
1543.00,0.0209
1530.00,0.0200
1517.00,0.0209
1504.00,0.0307
1491.00,0.0532
1478.00,0.0311
1465.00,0.0897
1452.00,0.0866
1439.00,0.1429
1426.00,0.1895
1413.00,0.1055
1400.00,0.0606
1387.00,0.0647
1374.00,0.0799
1361.00,0.0553
1348.00,0.0463
1335.00,0.0453
1322.00,0.0680
1309.00,0.0631
1296.00,0.1164
1283.00,0.1846
1270.00,0.1627
1257.00,0.0906
1244.00,0.0617
1231.00,0.0823
1218.00,0.0804
1205.00,0.0577
1192.00,0.0467
1179.00,0.0480
1166.00,0.0686
1153.00,0.0480
1140.00,0.0317
1127.00,0.0280
1114.00,0.0336
1101.00,0.0384
1088.00,0.0436
1075.00,0.0446
1062.00,0.0410
1049.00,0.0898
1036.00,0.0794
1023.00,0.0646
1010.00,0.0424
997.00,0.0380
984.00,0.0326
971.00,0.0254
958.00,0.0198
945.00,0.0179
932.00,0.0264
919.00,0.0239
906.00,0.0277
893.00,0.0292
880.00,0.0274
867.00,0.0319
854.00,0.0493
841.00,0.0643
828.00,0.0639
815.00,0.0454
802.00,0.0411
789.00,0.0425
776.00,0.0448
763.00,0.0486
750.00,0.0628
737.00,0.0750
724.00,0.0624
711.00,0.0568
698.00,0.0595
685.00,0.0678
672.00,0.0778
659.00,0.0959
646.00,0.1107
633.00,0.0896
620.00,0.0795
607.00,0.0808
594.00,0.0880
581.00,0.1068
568.00,0.1107
555.00,0.0923
542.00,0.0840
529.00,0.0811
516.00,0.0780
503.00,0.0756
490.00,0.0773
477.00,0.0789
464.00,0.0770
451.00,0.0765
438.00,0.0702
425.00,0.0671
412.00,0.0652
400.00,0.0687