File: FTIR/Olivia/2025_06_05_Putative_Cocrystal_Sorbic_CBD_Scan2.csv
Created as New Dataset,Sample 589 By YargerLab Date Thursday, June 05 2025
cm-1,A
4000.00,0.0026
3987.00,0.0026
3974.00,0.0026
3961.00,0.0026
3948.00,0.0025
3935.00,0.0025
3922.00,0.0025
3909.00,0.0025
3896.00,0.0024
3883.00,0.0023
3870.00,0.0023
3857.00,0.0024
3844.00,0.0023
3831.00,0.0023
3818.00,0.0022
3805.00,0.0023
3792.00,0.0023
3779.00,0.0023
3766.00,0.0022
3753.00,0.0022
3740.00,0.0020
3727.00,0.0021
3714.00,0.0021
3701.00,0.0021
3688.00,0.0018
3675.00,0.0017
3662.00,0.0017
3649.00,0.0016
3636.00,0.0017
3623.00,0.0019
3610.00,0.0020
3597.00,0.0020
3584.00,0.0021
3571.00,0.0023
3558.00,0.0026
3545.00,0.0029
3532.00,0.0034
3519.00,0.0041
3506.00,0.0053
3493.00,0.0074
3480.00,0.0108
3467.00,0.0178
3454.00,0.0434
3441.00,0.0339
3428.00,0.0174
3415.00,0.0120
3402.00,0.0103
3389.00,0.0098
3376.00,0.0098
3363.00,0.0099
3350.00,0.0103
3337.00,0.0108
3324.00,0.0115
3311.00,0.0124
3298.00,0.0134
3285.00,0.0148
3272.00,0.0159
3259.00,0.0176
3246.00,0.0185
3233.00,0.0197
3220.00,0.0209
3207.00,0.0223
3194.00,0.0235
3181.00,0.0242
3168.00,0.0248
3155.00,0.0250
3142.00,0.0263
3129.00,0.0273
3116.00,0.0279
3103.00,0.0290
3090.00,0.0292
3077.00,0.0305
3064.00,0.0306
3051.00,0.0266
3038.00,0.0256
3025.00,0.0244
3012.00,0.0231
2999.00,0.0230
2986.00,0.0258
2973.00,0.0299
2960.00,0.0394
2947.00,0.0415
2934.00,0.0545
2921.00,0.0681
2908.00,0.0456
2895.00,0.0346
2882.00,0.0325
2869.00,0.0374
2856.00,0.0414
2843.00,0.0295
2830.00,0.0263
2817.00,0.0188
2804.00,0.0172
2791.00,0.0165
2778.00,0.0168
2765.00,0.0176
2752.00,0.0181
2739.00,0.0184
2726.00,0.0189
2713.00,0.0189
2700.00,0.0192
2687.00,0.0193
2674.00,0.0191
2661.00,0.0195
2648.00,0.0190
2635.00,0.0186
2622.00,0.0182
2609.00,0.0177
2596.00,0.0171
2583.00,0.0165
2570.00,0.0163
2557.00,0.0166
2544.00,0.0162
2531.00,0.0153
2518.00,0.0149
2505.00,0.0140
2492.00,0.0137
2479.00,0.0135
2466.00,0.0133
2453.00,0.0138
2440.00,0.0137
2427.00,0.0134
2414.00,0.0129
2401.00,0.0117
2388.00,0.0106
2375.00,0.0096
2362.00,0.0088
2349.00,0.0082
2336.00,0.0077
2323.00,0.0081
2310.00,0.0067
2297.00,0.0065
2284.00,0.0067
2271.00,0.0059
2258.00,0.0054
2245.00,0.0049
2232.00,0.0048
2219.00,0.0045
2206.00,0.0040
2193.00,0.0042
2180.00,0.0038
2167.00,0.0047
2154.00,0.0007
2141.00,0.0017
2128.00,0.0017
2115.00,0.0026
2102.00,0.0023
2089.00,0.0023
2076.00,0.0023
2063.00,0.0018
2050.00,0.0030
2037.00,0.0025
2024.00,0.0016
2011.00,0.0021
1998.00,0.0017
1985.00,0.0029
1972.00,0.0016
1959.00,0.0013
1946.00,0.0014
1933.00,0.0016
1920.00,0.0018
1907.00,0.0019
1894.00,0.0018
1881.00,0.0019
1868.00,0.0021
1855.00,0.0020
1842.00,0.0022
1829.00,0.0022
1816.00,0.0019
1803.00,0.0027
1790.00,0.0032
1777.00,0.0035
1764.00,0.0033
1751.00,0.0034
1738.00,0.0033
1725.00,0.0036
1712.00,0.0047
1699.00,0.0055
1686.00,0.0066
1673.00,0.0092
1660.00,0.0168
1647.00,0.0443
1634.00,0.1092
1621.00,0.0612
1608.00,0.0372
1595.00,0.0490
1582.00,0.1116
1569.00,0.1086
1556.00,0.0637
1543.00,0.0385
1530.00,0.0341
1517.00,0.0289
1504.00,0.0190
1491.00,0.0165
1478.00,0.0212
1465.00,0.0380
1452.00,0.0874
1439.00,0.1049
1426.00,0.0559
1413.00,0.0484
1400.00,0.0538
1387.00,0.0447
1374.00,0.0577
1361.00,0.0522
1348.00,0.0690
1335.00,0.0627
1322.00,0.0782
1309.00,0.0547
1296.00,0.0501
1283.00,0.0768
1270.00,0.0413
1257.00,0.0323
1244.00,0.0651
1231.00,0.0382
1218.00,0.0371
1205.00,0.0644
1192.00,0.0250
1179.00,0.0306
1166.00,0.0402
1153.00,0.0299
1140.00,0.0167
1127.00,0.0102
1114.00,0.0094
1101.00,0.0197
1088.00,0.0133
1075.00,0.0126
1062.00,0.0218
1049.00,0.0413
1036.00,0.0681
1023.00,0.0377
1010.00,0.0214
997.00,0.0252
984.00,0.0186
971.00,0.0145
958.00,0.0247
945.00,0.0212
932.00,0.0186
919.00,0.0295
906.00,0.0286
893.00,0.0476
880.00,0.0498
867.00,0.0432
854.00,0.0673
841.00,0.0594
828.00,0.0428
815.00,0.0243
802.00,0.0445
789.00,0.0347
776.00,0.0297
763.00,0.0304
750.00,0.0236
737.00,0.0312
724.00,0.0270
711.00,0.0264
698.00,0.0260
685.00,0.0328
672.00,0.0365
659.00,0.0247
646.00,0.0249
633.00,0.0279
620.00,0.0236
607.00,0.0262
594.00,0.0254
581.00,0.0373
568.00,0.0186
555.00,0.0360
542.00,0.0303
529.00,0.0321
516.00,0.0225
503.00,0.0335
490.00,0.0736
477.00,0.0731
464.00,0.0657
451.00,0.0484
438.00,0.0418
425.00,0.0314
412.00,0.0278
400.00,0.0303