File: FTIR/Olivia/2025_06_12_Polystyrene_Std_scan3.csv
Created as New Dataset,Sample 673 By YargerLab Date Thursday, June 12 2025
cm-1,A
4000.00,0.0029
3987.00,0.0028
3974.00,0.0029
3961.00,0.0029
3948.00,0.0028
3935.00,0.0027
3922.00,0.0027
3909.00,0.0027
3896.00,0.0027
3883.00,0.0026
3870.00,0.0026
3857.00,0.0026
3844.00,0.0026
3831.00,0.0026
3818.00,0.0026
3805.00,0.0027
3792.00,0.0027
3779.00,0.0027
3766.00,0.0027
3753.00,0.0026
3740.00,0.0025
3727.00,0.0026
3714.00,0.0026
3701.00,0.0026
3688.00,0.0024
3675.00,0.0018
3662.00,0.0018
3649.00,0.0018
3636.00,0.0021
3623.00,0.0025
3610.00,0.0025
3597.00,0.0027
3584.00,0.0028
3571.00,0.0028
3558.00,0.0027
3545.00,0.0028
3532.00,0.0029
3519.00,0.0029
3506.00,0.0030
3493.00,0.0031
3480.00,0.0031
3467.00,0.0031
3454.00,0.0031
3441.00,0.0032
3428.00,0.0031
3415.00,0.0031
3402.00,0.0031
3389.00,0.0031
3376.00,0.0031
3363.00,0.0031
3350.00,0.0031
3337.00,0.0030
3324.00,0.0030
3311.00,0.0030
3298.00,0.0030
3285.00,0.0030
3272.00,0.0029
3259.00,0.0029
3246.00,0.0029
3233.00,0.0028
3220.00,0.0028
3207.00,0.0028
3194.00,0.0029
3181.00,0.0028
3168.00,0.0030
3155.00,0.0030
3142.00,0.0028
3129.00,0.0029
3116.00,0.0036
3103.00,0.0066
3090.00,0.0088
3077.00,0.0123
3064.00,0.0181
3051.00,0.0130
3038.00,0.0145
3025.00,0.0397
3012.00,0.0105
2999.00,0.0070
2986.00,0.0003
2973.00,0.0001
2960.00,0.0048
2947.00,0.0134
2934.00,0.0314
2921.00,0.0454
2908.00,0.0338
2895.00,0.0189
2882.00,0.0126
2869.00,0.0105
2856.00,0.0170
2843.00,0.0169
2830.00,0.0063
2817.00,0.0049
2804.00,0.0046
2791.00,0.0042
2778.00,0.0040
2765.00,0.0038
2752.00,0.0036
2739.00,0.0035
2726.00,0.0036
2713.00,0.0036
2700.00,0.0036
2687.00,0.0036
2674.00,0.0035
2661.00,0.0039
2648.00,0.0040
2635.00,0.0041
2622.00,0.0038
2609.00,0.0038
2596.00,0.0036
2583.00,0.0036
2570.00,0.0033
2557.00,0.0032
2544.00,0.0032
2531.00,0.0030
2518.00,0.0030
2505.00,0.0031
2492.00,0.0029
2479.00,0.0028
2466.00,0.0028
2453.00,0.0028
2440.00,0.0027
2427.00,0.0026
2414.00,0.0025
2401.00,0.0023
2388.00,0.0023
2375.00,0.0024
2362.00,0.0026
2349.00,0.0029
2336.00,0.0034
2323.00,0.0043
2310.00,0.0036
2297.00,0.0034
2284.00,0.0037
2271.00,0.0031
2258.00,0.0031
2245.00,0.0027
2232.00,0.0026
2219.00,0.0027
2206.00,0.0024
2193.00,0.0026
2180.00,0.0022
2167.00,0.0033
2154.00,-0.0000
2141.00,0.0004
2128.00,0.0008
2115.00,0.0021
2102.00,0.0020
2089.00,0.0018
2076.00,0.0022
2063.00,0.0015
2050.00,0.0023
2037.00,0.0017
2024.00,0.0011
2011.00,0.0014
1998.00,0.0017
1985.00,0.0027
1972.00,0.0016
1959.00,0.0032
1946.00,0.0059
1933.00,0.0040
1920.00,0.0023
1907.00,0.0021
1894.00,0.0032
1881.00,0.0050
1868.00,0.0058
1855.00,0.0032
1842.00,0.0022
1829.00,0.0029
1816.00,0.0043
1803.00,0.0066
1790.00,0.0041
1777.00,0.0034
1764.00,0.0035
1751.00,0.0055
1738.00,0.0058
1725.00,0.0048
1712.00,0.0041
1699.00,0.0041
1686.00,0.0044
1673.00,0.0050
1660.00,0.0047
1647.00,0.0039
1634.00,0.0035
1621.00,0.0045
1608.00,0.0148
1595.00,0.0190
1582.00,0.0151
1569.00,0.0047
1556.00,0.0045
1543.00,0.0066
1530.00,0.0048
1517.00,0.0047
1504.00,0.0085
1491.00,0.0842
1478.00,0.0108
1465.00,0.0105
1452.00,0.0961
1439.00,0.0337
1426.00,0.0104
1413.00,0.0075
1400.00,0.0060
1387.00,0.0103
1374.00,0.0181
1361.00,0.0175
1348.00,0.0159
1335.00,0.0145
1322.00,0.0154
1309.00,0.0158
1296.00,0.0126
1283.00,0.0112
1270.00,0.0081
1257.00,0.0069
1244.00,0.0073
1231.00,0.0073
1218.00,0.0084
1205.00,0.0110
1192.00,0.0135
1179.00,0.0167
1166.00,0.0088
1153.00,0.0160
1140.00,0.0058
1127.00,0.0062
1114.00,0.0092
1101.00,0.0094
1088.00,0.0115
1075.00,0.0199
1062.00,0.0199
1049.00,0.0135
1036.00,0.0200
1023.00,0.0344
1010.00,0.0183
997.00,0.0143
984.00,0.0162
971.00,0.0143
958.00,0.0132
945.00,0.0135
932.00,0.0099
919.00,0.0127
906.00,0.0312
893.00,0.0113
880.00,0.0081
867.00,0.0070
854.00,0.0079
841.00,0.0157
828.00,0.0069
815.00,0.0068
802.00,0.0078
789.00,0.0154
776.00,0.0395
763.00,0.1050
750.00,0.1357
737.00,0.0558
724.00,0.0155
711.00,0.0352
698.00,0.3850
685.00,0.1187
672.00,0.0531
659.00,0.0312
646.00,0.0202
633.00,0.0227
620.00,0.0274
607.00,0.0208
594.00,0.0229
581.00,0.0300
568.00,0.0512
555.00,0.0743
542.00,0.1173
529.00,0.0808
516.00,0.0400
503.00,0.0260
490.00,0.0197
477.00,0.0169
464.00,0.0149
451.00,0.0135
438.00,0.0135
425.00,0.0120
412.00,0.0131
400.00,0.0113