File: FTIR/Olivia/2025_07_31_Polystyrene_Std_scan1.csv
Created as New Dataset,Sample 1000 By YargerLab Date Thursday, July 31 2025
cm-1,A
4000.00,0.0002
3987.00,0.0001
3974.00,0.0001
3961.00,0.0002
3948.00,0.0001
3935.00,0.0001
3922.00,0.0001
3909.00,0.0002
3896.00,0.0000
3883.00,0.0001
3870.00,0.0001
3857.00,0.0000
3844.00,0.0001
3831.00,0.0001
3818.00,-0.0000
3805.00,0.0002
3792.00,0.0002
3779.00,0.0002
3766.00,0.0002
3753.00,0.0001
3740.00,0.0000
3727.00,0.0001
3714.00,0.0000
3701.00,0.0001
3688.00,-0.0000
3675.00,-0.0001
3662.00,0.0001
3649.00,-0.0000
3636.00,0.0000
3623.00,0.0001
3610.00,0.0000
3597.00,0.0001
3584.00,0.0001
3571.00,0.0002
3558.00,0.0002
3545.00,0.0002
3532.00,0.0004
3519.00,0.0003
3506.00,0.0004
3493.00,0.0004
3480.00,0.0005
3467.00,0.0006
3454.00,0.0005
3441.00,0.0006
3428.00,0.0005
3415.00,0.0005
3402.00,0.0005
3389.00,0.0006
3376.00,0.0005
3363.00,0.0006
3350.00,0.0006
3337.00,0.0005
3324.00,0.0006
3311.00,0.0005
3298.00,0.0005
3285.00,0.0005
3272.00,0.0006
3259.00,0.0005
3246.00,0.0004
3233.00,0.0005
3220.00,0.0004
3207.00,0.0005
3194.00,0.0005
3181.00,0.0004
3168.00,0.0004
3155.00,0.0004
3142.00,0.0004
3129.00,0.0004
3116.00,0.0005
3103.00,0.0014
3090.00,0.0018
3077.00,0.0030
3064.00,0.0040
3051.00,0.0031
3038.00,0.0031
3025.00,0.0095
3012.00,0.0025
2999.00,0.0021
2986.00,0.0008
2973.00,0.0010
2960.00,0.0020
2947.00,0.0039
2934.00,0.0081
2921.00,0.0117
2908.00,0.0089
2895.00,0.0051
2882.00,0.0034
2869.00,0.0028
2856.00,0.0043
2843.00,0.0042
2830.00,0.0012
2817.00,0.0008
2804.00,0.0007
2791.00,0.0006
2778.00,0.0005
2765.00,0.0005
2752.00,0.0004
2739.00,0.0005
2726.00,0.0005
2713.00,0.0005
2700.00,0.0005
2687.00,0.0005
2674.00,0.0004
2661.00,0.0008
2648.00,0.0009
2635.00,0.0009
2622.00,0.0009
2609.00,0.0008
2596.00,0.0007
2583.00,0.0006
2570.00,0.0004
2557.00,0.0004
2544.00,0.0004
2531.00,0.0003
2518.00,0.0003
2505.00,0.0002
2492.00,0.0003
2479.00,0.0002
2466.00,0.0002
2453.00,0.0004
2440.00,0.0002
2427.00,0.0001
2414.00,0.0000
2401.00,-0.0001
2388.00,-0.0002
2375.00,-0.0002
2362.00,-0.0001
2349.00,0.0000
2336.00,0.0003
2323.00,0.0013
2310.00,0.0008
2297.00,0.0008
2284.00,0.0011
2271.00,0.0006
2258.00,0.0007
2245.00,0.0002
2232.00,0.0005
2219.00,0.0003
2206.00,0.0002
2193.00,0.0004
2180.00,0.0001
2167.00,0.0009
2154.00,-0.0021
2141.00,-0.0011
2128.00,-0.0011
2115.00,-0.0001
2102.00,-0.0000
2089.00,-0.0001
2076.00,0.0003
2063.00,0.0000
2050.00,0.0007
2037.00,0.0001
2024.00,-0.0006
2011.00,-0.0004
1998.00,-0.0002
1985.00,0.0005
1972.00,-0.0008
1959.00,-0.0006
1946.00,0.0006
1933.00,0.0001
1920.00,-0.0002
1907.00,-0.0003
1894.00,0.0001
1881.00,0.0006
1868.00,0.0009
1855.00,0.0001
1842.00,-0.0001
1829.00,0.0001
1816.00,0.0004
1803.00,0.0013
1790.00,0.0007
1777.00,0.0006
1764.00,0.0008
1751.00,0.0016
1738.00,0.0020
1725.00,0.0017
1712.00,0.0012
1699.00,0.0013
1686.00,0.0018
1673.00,0.0020
1660.00,0.0021
1647.00,0.0016
1634.00,0.0012
1621.00,0.0015
1608.00,0.0040
1595.00,0.0055
1582.00,0.0043
1569.00,0.0012
1556.00,0.0010
1543.00,0.0017
1530.00,0.0012
1517.00,0.0011
1504.00,0.0022
1491.00,0.0248
1478.00,0.0031
1465.00,0.0034
1452.00,0.0261
1439.00,0.0104
1426.00,0.0033
1413.00,0.0023
1400.00,0.0022
1387.00,0.0035
1374.00,0.0057
1361.00,0.0055
1348.00,0.0049
1335.00,0.0044
1322.00,0.0048
1309.00,0.0049
1296.00,0.0043
1283.00,0.0040
1270.00,0.0031
1257.00,0.0027
1244.00,0.0029
1231.00,0.0029
1218.00,0.0031
1205.00,0.0038
1192.00,0.0048
1179.00,0.0060
1166.00,0.0038
1153.00,0.0063
1140.00,0.0027
1127.00,0.0028
1114.00,0.0037
1101.00,0.0039
1088.00,0.0046
1075.00,0.0073
1062.00,0.0075
1049.00,0.0050
1036.00,0.0069
1023.00,0.0116
1010.00,0.0063
997.00,0.0051
984.00,0.0057
971.00,0.0057
958.00,0.0054
945.00,0.0052
932.00,0.0040
919.00,0.0047
906.00,0.0109
893.00,0.0042
880.00,0.0030
867.00,0.0027
854.00,0.0030
841.00,0.0059
828.00,0.0027
815.00,0.0027
802.00,0.0031
789.00,0.0057
776.00,0.0143
763.00,0.0369
750.00,0.0475
737.00,0.0207
724.00,0.0058
711.00,0.0131
698.00,0.1293
685.00,0.0507
672.00,0.0227
659.00,0.0137
646.00,0.0085
633.00,0.0092
620.00,0.0111
607.00,0.0086
594.00,0.0097
581.00,0.0128
568.00,0.0212
555.00,0.0307
542.00,0.0480
529.00,0.0357
516.00,0.0182
503.00,0.0124
490.00,0.0096
477.00,0.0084
464.00,0.0083
451.00,0.0073
438.00,0.0070
425.00,0.0045
412.00,0.0054
400.00,0.0082