File: FTIR/Olivia/2025_08_04_1CBN_3PVP10kDa_MortPest_powder_scan1.csv
Created as New Dataset,Sample 1032 By YargerLab Date Monday, August 04 2025
cm-1,A
4000.00,0.0093
3987.00,0.0093
3974.00,0.0093
3961.00,0.0093
3948.00,0.0092
3935.00,0.0093
3922.00,0.0093
3909.00,0.0093
3896.00,0.0092
3883.00,0.0092
3870.00,0.0092
3857.00,0.0094
3844.00,0.0093
3831.00,0.0093
3818.00,0.0093
3805.00,0.0093
3792.00,0.0092
3779.00,0.0092
3766.00,0.0093
3753.00,0.0094
3740.00,0.0092
3727.00,0.0090
3714.00,0.0091
3701.00,0.0090
3688.00,0.0092
3675.00,0.0095
3662.00,0.0095
3649.00,0.0098
3636.00,0.0102
3623.00,0.0107
3610.00,0.0115
3597.00,0.0123
3584.00,0.0133
3571.00,0.0147
3558.00,0.0159
3545.00,0.0170
3532.00,0.0180
3519.00,0.0189
3506.00,0.0194
3493.00,0.0202
3480.00,0.0209
3467.00,0.0217
3454.00,0.0225
3441.00,0.0233
3428.00,0.0243
3415.00,0.0252
3402.00,0.0256
3389.00,0.0251
3376.00,0.0241
3363.00,0.0232
3350.00,0.0223
3337.00,0.0218
3324.00,0.0216
3311.00,0.0214
3298.00,0.0216
3285.00,0.0218
3272.00,0.0216
3259.00,0.0217
3246.00,0.0215
3233.00,0.0212
3220.00,0.0206
3207.00,0.0197
3194.00,0.0188
3181.00,0.0177
3168.00,0.0169
3155.00,0.0159
3142.00,0.0152
3129.00,0.0146
3116.00,0.0141
3103.00,0.0136
3090.00,0.0133
3077.00,0.0132
3064.00,0.0129
3051.00,0.0129
3038.00,0.0129
3025.00,0.0128
3012.00,0.0129
2999.00,0.0152
2986.00,0.0193
2973.00,0.0241
2960.00,0.0288
2947.00,0.0266
2934.00,0.0306
2921.00,0.0339
2908.00,0.0271
2895.00,0.0244
2882.00,0.0236
2869.00,0.0246
2856.00,0.0276
2843.00,0.0209
2830.00,0.0170
2817.00,0.0151
2804.00,0.0143
2791.00,0.0138
2778.00,0.0134
2765.00,0.0132
2752.00,0.0131
2739.00,0.0131
2726.00,0.0131
2713.00,0.0130
2700.00,0.0129
2687.00,0.0127
2674.00,0.0127
2661.00,0.0130
2648.00,0.0131
2635.00,0.0129
2622.00,0.0127
2609.00,0.0126
2596.00,0.0126
2583.00,0.0126
2570.00,0.0124
2557.00,0.0123
2544.00,0.0121
2531.00,0.0121
2518.00,0.0120
2505.00,0.0119
2492.00,0.0118
2479.00,0.0117
2466.00,0.0116
2453.00,0.0118
2440.00,0.0117
2427.00,0.0117
2414.00,0.0116
2401.00,0.0115
2388.00,0.0114
2375.00,0.0111
2362.00,0.0111
2349.00,0.0113
2336.00,0.0117
2323.00,0.0126
2310.00,0.0116
2297.00,0.0120
2284.00,0.0126
2271.00,0.0122
2258.00,0.0119
2245.00,0.0118
2232.00,0.0117
2219.00,0.0117
2206.00,0.0118
2193.00,0.0121
2180.00,0.0117
2167.00,0.0126
2154.00,0.0095
2141.00,0.0102
2128.00,0.0105
2115.00,0.0116
2102.00,0.0115
2089.00,0.0113
2076.00,0.0114
2063.00,0.0111
2050.00,0.0121
2037.00,0.0112
2024.00,0.0105
2011.00,0.0104
1998.00,0.0103
1985.00,0.0110
1972.00,0.0096
1959.00,0.0093
1946.00,0.0098
1933.00,0.0098
1920.00,0.0102
1907.00,0.0105
1894.00,0.0103
1881.00,0.0101
1868.00,0.0102
1855.00,0.0100
1842.00,0.0100
1829.00,0.0099
1816.00,0.0096
1803.00,0.0098
1790.00,0.0097
1777.00,0.0097
1764.00,0.0097
1751.00,0.0097
1738.00,0.0098
1725.00,0.0105
1712.00,0.0123
1699.00,0.0208
1686.00,0.0480
1673.00,0.0800
1660.00,0.1023
1647.00,0.1049
1634.00,0.0770
1621.00,0.0684
1608.00,0.0495
1595.00,0.0335
1582.00,0.0380
1569.00,0.0288
1556.00,0.0219
1543.00,0.0202
1530.00,0.0189
1517.00,0.0193
1504.00,0.0235
1491.00,0.0344
1478.00,0.0226
1465.00,0.0471
1452.00,0.0419
1439.00,0.0612
1426.00,0.0761
1413.00,0.0560
1400.00,0.0453
1387.00,0.0370
1374.00,0.0398
1361.00,0.0403
1348.00,0.0322
1335.00,0.0288
1322.00,0.0364
1309.00,0.0353
1296.00,0.0560
1283.00,0.0863
1270.00,0.0785
1257.00,0.0531
1244.00,0.0467
1231.00,0.0546
1218.00,0.0502
1205.00,0.0428
1192.00,0.0471
1179.00,0.0371
1166.00,0.0386
1153.00,0.0451
1140.00,0.0319
1127.00,0.0449
1114.00,0.0339
1101.00,0.0373
1088.00,0.0308
1075.00,0.0309
1062.00,0.0341
1049.00,0.0510
1036.00,0.0364
1023.00,0.0454
1010.00,0.0332
997.00,0.0355
984.00,0.0291
971.00,0.0274
958.00,0.0265
945.00,0.0255
932.00,0.0301
919.00,0.0284
906.00,0.0259
893.00,0.0289
880.00,0.0261
867.00,0.0368
854.00,0.0357
841.00,0.0384
828.00,0.0357
815.00,0.0432
802.00,0.0275
789.00,0.0269
776.00,0.0291
763.00,0.0304
750.00,0.0348
737.00,0.0439
724.00,0.0409
711.00,0.0390
698.00,0.0408
685.00,0.0440
672.00,0.0502
659.00,0.0577
646.00,0.0628
633.00,0.0580
620.00,0.0581
607.00,0.0583
594.00,0.0637
581.00,0.0707
568.00,0.0734
555.00,0.0711
542.00,0.0706
529.00,0.0705
516.00,0.0662
503.00,0.0665
490.00,0.0671
477.00,0.0665
464.00,0.0665
451.00,0.0647
438.00,0.0619
425.00,0.0599
412.00,0.0576
400.00,0.0571