File: FTIR/Olivia/2025_07_28_CBN_PVP10kDa_Mortar_Mix_Batch_scan3.csv
Created as New Dataset,Sample 945 By YargerLab Date Monday, July 28 2025
cm-1,A
4000.00,0.0046
3987.00,0.0047
3974.00,0.0047
3961.00,0.0047
3948.00,0.0047
3935.00,0.0046
3922.00,0.0046
3909.00,0.0046
3896.00,0.0046
3883.00,0.0045
3870.00,0.0046
3857.00,0.0046
3844.00,0.0045
3831.00,0.0046
3818.00,0.0045
3805.00,0.0045
3792.00,0.0047
3779.00,0.0046
3766.00,0.0047
3753.00,0.0047
3740.00,0.0045
3727.00,0.0045
3714.00,0.0045
3701.00,0.0044
3688.00,0.0045
3675.00,0.0047
3662.00,0.0049
3649.00,0.0050
3636.00,0.0054
3623.00,0.0058
3610.00,0.0064
3597.00,0.0070
3584.00,0.0079
3571.00,0.0088
3558.00,0.0099
3545.00,0.0109
3532.00,0.0117
3519.00,0.0125
3506.00,0.0131
3493.00,0.0138
3480.00,0.0147
3467.00,0.0159
3454.00,0.0172
3441.00,0.0186
3428.00,0.0203
3415.00,0.0223
3402.00,0.0234
3389.00,0.0230
3376.00,0.0215
3363.00,0.0200
3350.00,0.0188
3337.00,0.0182
3324.00,0.0180
3311.00,0.0181
3298.00,0.0185
3285.00,0.0190
3272.00,0.0193
3259.00,0.0199
3246.00,0.0203
3233.00,0.0202
3220.00,0.0200
3207.00,0.0190
3194.00,0.0176
3181.00,0.0162
3168.00,0.0148
3155.00,0.0132
3142.00,0.0119
3129.00,0.0109
3116.00,0.0102
3103.00,0.0094
3090.00,0.0092
3077.00,0.0091
3064.00,0.0088
3051.00,0.0090
3038.00,0.0091
3025.00,0.0090
3012.00,0.0091
2999.00,0.0126
2986.00,0.0184
2973.00,0.0262
2960.00,0.0326
2947.00,0.0276
2934.00,0.0384
2921.00,0.0417
2908.00,0.0294
2895.00,0.0239
2882.00,0.0221
2869.00,0.0251
2856.00,0.0323
2843.00,0.0196
2830.00,0.0131
2817.00,0.0104
2804.00,0.0093
2791.00,0.0086
2778.00,0.0080
2765.00,0.0077
2752.00,0.0077
2739.00,0.0079
2726.00,0.0081
2713.00,0.0078
2700.00,0.0075
2687.00,0.0073
2674.00,0.0072
2661.00,0.0077
2648.00,0.0079
2635.00,0.0076
2622.00,0.0073
2609.00,0.0072
2596.00,0.0072
2583.00,0.0073
2570.00,0.0071
2557.00,0.0069
2544.00,0.0067
2531.00,0.0067
2518.00,0.0064
2505.00,0.0061
2492.00,0.0061
2479.00,0.0060
2466.00,0.0059
2453.00,0.0060
2440.00,0.0059
2427.00,0.0057
2414.00,0.0056
2401.00,0.0056
2388.00,0.0054
2375.00,0.0051
2362.00,0.0050
2349.00,0.0052
2336.00,0.0055
2323.00,0.0068
2310.00,0.0060
2297.00,0.0063
2284.00,0.0067
2271.00,0.0060
2258.00,0.0058
2245.00,0.0054
2232.00,0.0057
2219.00,0.0055
2206.00,0.0057
2193.00,0.0057
2180.00,0.0053
2167.00,0.0066
2154.00,0.0031
2141.00,0.0036
2128.00,0.0042
2115.00,0.0052
2102.00,0.0050
2089.00,0.0049
2076.00,0.0053
2063.00,0.0047
2050.00,0.0054
2037.00,0.0048
2024.00,0.0041
2011.00,0.0041
1998.00,0.0043
1985.00,0.0052
1972.00,0.0035
1959.00,0.0033
1946.00,0.0035
1933.00,0.0041
1920.00,0.0045
1907.00,0.0055
1894.00,0.0051
1881.00,0.0046
1868.00,0.0048
1855.00,0.0048
1842.00,0.0050
1829.00,0.0048
1816.00,0.0047
1803.00,0.0053
1790.00,0.0053
1777.00,0.0058
1764.00,0.0059
1751.00,0.0065
1738.00,0.0067
1725.00,0.0087
1712.00,0.0119
1699.00,0.0236
1686.00,0.0501
1673.00,0.0765
1660.00,0.0902
1647.00,0.0851
1634.00,0.0595
1621.00,0.0729
1608.00,0.0500
1595.00,0.0279
1582.00,0.0440
1569.00,0.0274
1556.00,0.0154
1543.00,0.0131
1530.00,0.0124
1517.00,0.0151
1504.00,0.0217
1491.00,0.0336
1478.00,0.0191
1465.00,0.0485
1452.00,0.0429
1439.00,0.0623
1426.00,0.0815
1413.00,0.0581
1400.00,0.0565
1387.00,0.0416
1374.00,0.0404
1361.00,0.0478
1348.00,0.0353
1335.00,0.0287
1322.00,0.0356
1309.00,0.0356
1296.00,0.0590
1283.00,0.0879
1270.00,0.0728
1257.00,0.0469
1244.00,0.0459
1231.00,0.0582
1218.00,0.0482
1205.00,0.0382
1192.00,0.0513
1179.00,0.0303
1166.00,0.0313
1153.00,0.0489
1140.00,0.0247
1127.00,0.0534
1114.00,0.0294
1101.00,0.0372
1088.00,0.0221
1075.00,0.0225
1062.00,0.0324
1049.00,0.0672
1036.00,0.0378
1023.00,0.0522
1010.00,0.0281
997.00,0.0321
984.00,0.0212
971.00,0.0194
958.00,0.0181
945.00,0.0169
932.00,0.0239
919.00,0.0222
906.00,0.0177
893.00,0.0228
880.00,0.0192
867.00,0.0419
854.00,0.0363
841.00,0.0367
828.00,0.0341
815.00,0.0540
802.00,0.0192
789.00,0.0177
776.00,0.0220
763.00,0.0224
750.00,0.0263
737.00,0.0410
724.00,0.0349
711.00,0.0330
698.00,0.0358
685.00,0.0396
672.00,0.0482
659.00,0.0548
646.00,0.0552
633.00,0.0494
620.00,0.0521
607.00,0.0519
594.00,0.0616
581.00,0.0662
568.00,0.0658
555.00,0.0648
542.00,0.0647
529.00,0.0645
516.00,0.0547
503.00,0.0541
490.00,0.0545
477.00,0.0518
464.00,0.0513
451.00,0.0502
438.00,0.0485
425.00,0.0464
412.00,0.0483
400.00,0.0460