File: FTIR/Olivia/2025_08_04_1CBN_3PVP29kDa_MortPest_powder_scan3.csv
Created as New Dataset,Sample 1041 By YargerLab Date Monday, August 04 2025
cm-1,A
4000.00,0.0060
3987.00,0.0060
3974.00,0.0060
3961.00,0.0059
3948.00,0.0059
3935.00,0.0059
3922.00,0.0059
3909.00,0.0059
3896.00,0.0060
3883.00,0.0060
3870.00,0.0060
3857.00,0.0060
3844.00,0.0059
3831.00,0.0059
3818.00,0.0059
3805.00,0.0059
3792.00,0.0058
3779.00,0.0059
3766.00,0.0059
3753.00,0.0060
3740.00,0.0059
3727.00,0.0057
3714.00,0.0057
3701.00,0.0056
3688.00,0.0057
3675.00,0.0057
3662.00,0.0057
3649.00,0.0059
3636.00,0.0058
3623.00,0.0060
3610.00,0.0063
3597.00,0.0065
3584.00,0.0067
3571.00,0.0071
3558.00,0.0075
3545.00,0.0081
3532.00,0.0087
3519.00,0.0093
3506.00,0.0098
3493.00,0.0105
3480.00,0.0115
3467.00,0.0127
3454.00,0.0141
3441.00,0.0159
3428.00,0.0181
3415.00,0.0208
3402.00,0.0222
3389.00,0.0216
3376.00,0.0201
3363.00,0.0186
3350.00,0.0176
3337.00,0.0173
3324.00,0.0173
3311.00,0.0178
3298.00,0.0185
3285.00,0.0195
3272.00,0.0205
3259.00,0.0214
3246.00,0.0222
3233.00,0.0223
3220.00,0.0218
3207.00,0.0206
3194.00,0.0189
3181.00,0.0173
3168.00,0.0156
3155.00,0.0139
3142.00,0.0125
3129.00,0.0115
3116.00,0.0107
3103.00,0.0099
3090.00,0.0097
3077.00,0.0096
3064.00,0.0094
3051.00,0.0094
3038.00,0.0097
3025.00,0.0095
3012.00,0.0090
2999.00,0.0112
2986.00,0.0153
2973.00,0.0214
2960.00,0.0276
2947.00,0.0219
2934.00,0.0336
2921.00,0.0362
2908.00,0.0238
2895.00,0.0184
2882.00,0.0166
2869.00,0.0203
2856.00,0.0283
2843.00,0.0165
2830.00,0.0112
2817.00,0.0095
2804.00,0.0089
2791.00,0.0083
2778.00,0.0080
2765.00,0.0078
2752.00,0.0078
2739.00,0.0080
2726.00,0.0083
2713.00,0.0080
2700.00,0.0078
2687.00,0.0076
2674.00,0.0076
2661.00,0.0080
2648.00,0.0081
2635.00,0.0079
2622.00,0.0075
2609.00,0.0075
2596.00,0.0075
2583.00,0.0076
2570.00,0.0073
2557.00,0.0071
2544.00,0.0070
2531.00,0.0070
2518.00,0.0067
2505.00,0.0067
2492.00,0.0065
2479.00,0.0064
2466.00,0.0063
2453.00,0.0064
2440.00,0.0063
2427.00,0.0061
2414.00,0.0060
2401.00,0.0060
2388.00,0.0058
2375.00,0.0054
2362.00,0.0053
2349.00,0.0054
2336.00,0.0057
2323.00,0.0066
2310.00,0.0059
2297.00,0.0062
2284.00,0.0067
2271.00,0.0064
2258.00,0.0059
2245.00,0.0059
2232.00,0.0060
2219.00,0.0059
2206.00,0.0059
2193.00,0.0059
2180.00,0.0051
2167.00,0.0062
2154.00,0.0038
2141.00,0.0040
2128.00,0.0044
2115.00,0.0055
2102.00,0.0051
2089.00,0.0051
2076.00,0.0055
2063.00,0.0049
2050.00,0.0056
2037.00,0.0053
2024.00,0.0045
2011.00,0.0043
1998.00,0.0047
1985.00,0.0054
1972.00,0.0040
1959.00,0.0039
1946.00,0.0044
1933.00,0.0044
1920.00,0.0048
1907.00,0.0055
1894.00,0.0053
1881.00,0.0050
1868.00,0.0049
1855.00,0.0050
1842.00,0.0052
1829.00,0.0050
1816.00,0.0047
1803.00,0.0050
1790.00,0.0054
1777.00,0.0053
1764.00,0.0053
1751.00,0.0054
1738.00,0.0055
1725.00,0.0063
1712.00,0.0074
1699.00,0.0099
1686.00,0.0151
1673.00,0.0228
1660.00,0.0283
1647.00,0.0292
1634.00,0.0272
1621.00,0.0498
1608.00,0.0347
1595.00,0.0195
1582.00,0.0366
1569.00,0.0221
1556.00,0.0122
1543.00,0.0102
1530.00,0.0097
1517.00,0.0113
1504.00,0.0149
1491.00,0.0208
1478.00,0.0126
1465.00,0.0283
1452.00,0.0254
1439.00,0.0357
1426.00,0.0420
1413.00,0.0314
1400.00,0.0439
1387.00,0.0301
1374.00,0.0245
1361.00,0.0341
1348.00,0.0260
1335.00,0.0197
1322.00,0.0212
1309.00,0.0206
1296.00,0.0329
1283.00,0.0406
1270.00,0.0288
1257.00,0.0208
1244.00,0.0270
1231.00,0.0341
1218.00,0.0268
1205.00,0.0219
1192.00,0.0349
1179.00,0.0177
1166.00,0.0172
1153.00,0.0361
1140.00,0.0161
1127.00,0.0409
1114.00,0.0201
1101.00,0.0267
1088.00,0.0145
1075.00,0.0147
1062.00,0.0241
1049.00,0.0549
1036.00,0.0273
1023.00,0.0384
1010.00,0.0185
997.00,0.0218
984.00,0.0147
971.00,0.0137
958.00,0.0126
945.00,0.0116
932.00,0.0153
919.00,0.0153
906.00,0.0117
893.00,0.0151
880.00,0.0136
867.00,0.0310
854.00,0.0236
841.00,0.0223
828.00,0.0232
815.00,0.0383
802.00,0.0134
789.00,0.0124
776.00,0.0150
763.00,0.0144
750.00,0.0156
737.00,0.0246
724.00,0.0212
711.00,0.0207
698.00,0.0224
685.00,0.0236
672.00,0.0278
659.00,0.0288
646.00,0.0264
633.00,0.0250
620.00,0.0283
607.00,0.0283
594.00,0.0330
581.00,0.0333
568.00,0.0318
555.00,0.0331
542.00,0.0347
529.00,0.0342
516.00,0.0276
503.00,0.0275
490.00,0.0279
477.00,0.0259
464.00,0.0247
451.00,0.0253
438.00,0.0234
425.00,0.0214
412.00,0.0235
400.00,0.0247