File: FTIR/Olivia/2025_07_28_CBN_PVP10kDa_Mortar_Mix_Batch_scan1.csv
Created as New Dataset,Sample 943 By YargerLab Date Monday, July 28 2025
cm-1,A
4000.00,0.0029
3987.00,0.0029
3974.00,0.0029
3961.00,0.0029
3948.00,0.0029
3935.00,0.0029
3922.00,0.0029
3909.00,0.0029
3896.00,0.0029
3883.00,0.0028
3870.00,0.0028
3857.00,0.0029
3844.00,0.0029
3831.00,0.0029
3818.00,0.0028
3805.00,0.0029
3792.00,0.0030
3779.00,0.0029
3766.00,0.0029
3753.00,0.0030
3740.00,0.0029
3727.00,0.0029
3714.00,0.0029
3701.00,0.0028
3688.00,0.0028
3675.00,0.0031
3662.00,0.0032
3649.00,0.0035
3636.00,0.0038
3623.00,0.0042
3610.00,0.0048
3597.00,0.0055
3584.00,0.0063
3571.00,0.0072
3558.00,0.0082
3545.00,0.0091
3532.00,0.0099
3519.00,0.0106
3506.00,0.0110
3493.00,0.0117
3480.00,0.0122
3467.00,0.0130
3454.00,0.0137
3441.00,0.0144
3428.00,0.0153
3415.00,0.0162
3402.00,0.0166
3389.00,0.0164
3376.00,0.0156
3363.00,0.0148
3350.00,0.0142
3337.00,0.0139
3324.00,0.0137
3311.00,0.0137
3298.00,0.0138
3285.00,0.0141
3272.00,0.0139
3259.00,0.0141
3246.00,0.0140
3233.00,0.0136
3220.00,0.0134
3207.00,0.0127
3194.00,0.0118
3181.00,0.0111
3168.00,0.0102
3155.00,0.0092
3142.00,0.0085
3129.00,0.0078
3116.00,0.0074
3103.00,0.0070
3090.00,0.0069
3077.00,0.0068
3064.00,0.0066
3051.00,0.0066
3038.00,0.0066
3025.00,0.0066
3012.00,0.0068
2999.00,0.0093
2986.00,0.0134
2973.00,0.0182
2960.00,0.0223
2947.00,0.0201
2934.00,0.0253
2921.00,0.0274
2908.00,0.0203
2895.00,0.0172
2882.00,0.0162
2869.00,0.0175
2856.00,0.0206
2843.00,0.0133
2830.00,0.0092
2817.00,0.0073
2804.00,0.0065
2791.00,0.0060
2778.00,0.0057
2765.00,0.0054
2752.00,0.0053
2739.00,0.0054
2726.00,0.0054
2713.00,0.0053
2700.00,0.0051
2687.00,0.0049
2674.00,0.0048
2661.00,0.0052
2648.00,0.0054
2635.00,0.0052
2622.00,0.0051
2609.00,0.0049
2596.00,0.0049
2583.00,0.0049
2570.00,0.0048
2557.00,0.0046
2544.00,0.0045
2531.00,0.0045
2518.00,0.0042
2505.00,0.0041
2492.00,0.0041
2479.00,0.0039
2466.00,0.0039
2453.00,0.0040
2440.00,0.0039
2427.00,0.0038
2414.00,0.0038
2401.00,0.0036
2388.00,0.0035
2375.00,0.0032
2362.00,0.0032
2349.00,0.0034
2336.00,0.0037
2323.00,0.0047
2310.00,0.0040
2297.00,0.0043
2284.00,0.0046
2271.00,0.0042
2258.00,0.0040
2245.00,0.0037
2232.00,0.0037
2219.00,0.0039
2206.00,0.0038
2193.00,0.0041
2180.00,0.0035
2167.00,0.0047
2154.00,0.0012
2141.00,0.0021
2128.00,0.0026
2115.00,0.0036
2102.00,0.0033
2089.00,0.0033
2076.00,0.0035
2063.00,0.0031
2050.00,0.0040
2037.00,0.0031
2024.00,0.0027
2011.00,0.0026
1998.00,0.0028
1985.00,0.0037
1972.00,0.0022
1959.00,0.0020
1946.00,0.0021
1933.00,0.0024
1920.00,0.0027
1907.00,0.0033
1894.00,0.0031
1881.00,0.0029
1868.00,0.0031
1855.00,0.0031
1842.00,0.0031
1829.00,0.0030
1816.00,0.0029
1803.00,0.0034
1790.00,0.0035
1777.00,0.0038
1764.00,0.0040
1751.00,0.0044
1738.00,0.0048
1725.00,0.0062
1712.00,0.0090
1699.00,0.0197
1686.00,0.0428
1673.00,0.0653
1660.00,0.0775
1647.00,0.0747
1634.00,0.0531
1621.00,0.0529
1608.00,0.0366
1595.00,0.0223
1582.00,0.0293
1569.00,0.0200
1556.00,0.0138
1543.00,0.0130
1530.00,0.0126
1517.00,0.0139
1504.00,0.0185
1491.00,0.0264
1478.00,0.0161
1465.00,0.0375
1452.00,0.0334
1439.00,0.0478
1426.00,0.0617
1413.00,0.0449
1400.00,0.0373
1387.00,0.0293
1374.00,0.0305
1361.00,0.0324
1348.00,0.0241
1335.00,0.0208
1322.00,0.0270
1309.00,0.0273
1296.00,0.0438
1283.00,0.0668
1270.00,0.0584
1257.00,0.0386
1244.00,0.0350
1231.00,0.0427
1218.00,0.0369
1205.00,0.0294
1192.00,0.0348
1179.00,0.0237
1166.00,0.0250
1153.00,0.0331
1140.00,0.0190
1127.00,0.0336
1114.00,0.0214
1101.00,0.0256
1088.00,0.0181
1075.00,0.0188
1062.00,0.0238
1049.00,0.0416
1036.00,0.0263
1023.00,0.0347
1010.00,0.0213
997.00,0.0230
984.00,0.0161
971.00,0.0148
958.00,0.0139
945.00,0.0131
932.00,0.0180
919.00,0.0164
906.00,0.0138
893.00,0.0170
880.00,0.0147
867.00,0.0268
854.00,0.0254
841.00,0.0268
828.00,0.0241
815.00,0.0338
802.00,0.0153
789.00,0.0147
776.00,0.0174
763.00,0.0184
750.00,0.0218
737.00,0.0309
724.00,0.0273
711.00,0.0259
698.00,0.0281
685.00,0.0311
672.00,0.0372
659.00,0.0431
646.00,0.0454
633.00,0.0408
620.00,0.0420
607.00,0.0420
594.00,0.0477
581.00,0.0529
568.00,0.0530
555.00,0.0515
542.00,0.0505
529.00,0.0504
516.00,0.0449
503.00,0.0449
490.00,0.0449
477.00,0.0438
464.00,0.0436
451.00,0.0426
438.00,0.0420
425.00,0.0405
412.00,0.0425
400.00,0.0401