File: FTIR/Olivia/2025_07_21_Polystyrene_Std_scan1.csv
Created as New Dataset,Sample 840 By YargerLab Date Friday, July 18 2025
cm-1,A
4000.00,0.0007
3987.00,0.0007
3974.00,0.0007
3961.00,0.0007
3948.00,0.0007
3935.00,0.0007
3922.00,0.0006
3909.00,0.0007
3896.00,0.0006
3883.00,0.0005
3870.00,0.0005
3857.00,0.0006
3844.00,0.0006
3831.00,0.0006
3818.00,0.0005
3805.00,0.0006
3792.00,0.0007
3779.00,0.0007
3766.00,0.0006
3753.00,0.0006
3740.00,0.0006
3727.00,0.0005
3714.00,0.0006
3701.00,0.0006
3688.00,0.0005
3675.00,0.0003
3662.00,0.0006
3649.00,0.0004
3636.00,0.0005
3623.00,0.0006
3610.00,0.0005
3597.00,0.0007
3584.00,0.0006
3571.00,0.0007
3558.00,0.0007
3545.00,0.0008
3532.00,0.0008
3519.00,0.0009
3506.00,0.0010
3493.00,0.0010
3480.00,0.0011
3467.00,0.0011
3454.00,0.0011
3441.00,0.0011
3428.00,0.0011
3415.00,0.0011
3402.00,0.0011
3389.00,0.0011
3376.00,0.0011
3363.00,0.0012
3350.00,0.0011
3337.00,0.0011
3324.00,0.0011
3311.00,0.0011
3298.00,0.0011
3285.00,0.0010
3272.00,0.0010
3259.00,0.0010
3246.00,0.0010
3233.00,0.0010
3220.00,0.0009
3207.00,0.0010
3194.00,0.0010
3181.00,0.0009
3168.00,0.0010
3155.00,0.0010
3142.00,0.0010
3129.00,0.0010
3116.00,0.0012
3103.00,0.0022
3090.00,0.0028
3077.00,0.0043
3064.00,0.0058
3051.00,0.0046
3038.00,0.0048
3025.00,0.0131
3012.00,0.0038
2999.00,0.0033
2986.00,0.0014
2973.00,0.0016
2960.00,0.0028
2947.00,0.0055
2934.00,0.0113
2921.00,0.0160
2908.00,0.0121
2895.00,0.0072
2882.00,0.0049
2869.00,0.0040
2856.00,0.0061
2843.00,0.0060
2830.00,0.0021
2817.00,0.0016
2804.00,0.0015
2791.00,0.0013
2778.00,0.0013
2765.00,0.0012
2752.00,0.0011
2739.00,0.0012
2726.00,0.0012
2713.00,0.0012
2700.00,0.0012
2687.00,0.0012
2674.00,0.0012
2661.00,0.0015
2648.00,0.0017
2635.00,0.0016
2622.00,0.0015
2609.00,0.0014
2596.00,0.0014
2583.00,0.0013
2570.00,0.0011
2557.00,0.0011
2544.00,0.0010
2531.00,0.0010
2518.00,0.0009
2505.00,0.0009
2492.00,0.0009
2479.00,0.0010
2466.00,0.0008
2453.00,0.0010
2440.00,0.0008
2427.00,0.0007
2414.00,0.0006
2401.00,0.0005
2388.00,0.0005
2375.00,0.0004
2362.00,0.0004
2349.00,0.0006
2336.00,0.0009
2323.00,0.0020
2310.00,0.0014
2297.00,0.0015
2284.00,0.0019
2271.00,0.0013
2258.00,0.0013
2245.00,0.0011
2232.00,0.0010
2219.00,0.0009
2206.00,0.0008
2193.00,0.0010
2180.00,0.0007
2167.00,0.0013
2154.00,-0.0013
2141.00,-0.0008
2128.00,-0.0004
2115.00,0.0007
2102.00,0.0006
2089.00,0.0004
2076.00,0.0008
2063.00,0.0005
2050.00,0.0012
2037.00,0.0004
2024.00,0.0001
2011.00,0.0004
1998.00,0.0003
1985.00,0.0010
1972.00,-0.0003
1959.00,-0.0001
1946.00,0.0016
1933.00,0.0008
1920.00,0.0004
1907.00,0.0003
1894.00,0.0008
1881.00,0.0015
1868.00,0.0018
1855.00,0.0009
1842.00,0.0006
1829.00,0.0008
1816.00,0.0013
1803.00,0.0023
1790.00,0.0015
1777.00,0.0014
1764.00,0.0017
1751.00,0.0027
1738.00,0.0029
1725.00,0.0025
1712.00,0.0022
1699.00,0.0021
1686.00,0.0024
1673.00,0.0028
1660.00,0.0028
1647.00,0.0023
1634.00,0.0021
1621.00,0.0024
1608.00,0.0058
1595.00,0.0078
1582.00,0.0063
1569.00,0.0021
1556.00,0.0021
1543.00,0.0030
1530.00,0.0022
1517.00,0.0020
1504.00,0.0036
1491.00,0.0338
1478.00,0.0048
1465.00,0.0049
1452.00,0.0363
1439.00,0.0143
1426.00,0.0047
1413.00,0.0036
1400.00,0.0034
1387.00,0.0054
1374.00,0.0085
1361.00,0.0081
1348.00,0.0072
1335.00,0.0066
1322.00,0.0071
1309.00,0.0072
1296.00,0.0061
1283.00,0.0056
1270.00,0.0045
1257.00,0.0040
1244.00,0.0043
1231.00,0.0043
1218.00,0.0045
1205.00,0.0056
1192.00,0.0068
1179.00,0.0086
1166.00,0.0054
1153.00,0.0087
1140.00,0.0041
1127.00,0.0042
1114.00,0.0055
1101.00,0.0056
1088.00,0.0067
1075.00,0.0103
1062.00,0.0102
1049.00,0.0072
1036.00,0.0097
1023.00,0.0161
1010.00,0.0091
997.00,0.0074
984.00,0.0084
971.00,0.0082
958.00,0.0077
945.00,0.0076
932.00,0.0060
919.00,0.0069
906.00,0.0152
893.00,0.0062
880.00,0.0046
867.00,0.0042
854.00,0.0045
841.00,0.0083
828.00,0.0041
815.00,0.0040
802.00,0.0045
789.00,0.0081
776.00,0.0193
763.00,0.0495
750.00,0.0639
737.00,0.0279
724.00,0.0082
711.00,0.0177
698.00,0.1721
685.00,0.0679
672.00,0.0308
659.00,0.0188
646.00,0.0118
633.00,0.0129
620.00,0.0155
607.00,0.0122
594.00,0.0135
581.00,0.0171
568.00,0.0281
555.00,0.0404
542.00,0.0628
529.00,0.0467
516.00,0.0238
503.00,0.0167
490.00,0.0132
477.00,0.0111
464.00,0.0104
451.00,0.0096
438.00,0.0092
425.00,0.0080
412.00,0.0091
400.00,0.0092