File: FTIR/Olivia/2025_07_30_Polystyrene_Std_scan3.csv
Created as New Dataset,Sample 959 By YargerLab Date Wednesday, July 30 2025
cm-1,A
4000.00,0.0011
3987.00,0.0010
3974.00,0.0011
3961.00,0.0010
3948.00,0.0010
3935.00,0.0010
3922.00,0.0010
3909.00,0.0010
3896.00,0.0009
3883.00,0.0008
3870.00,0.0009
3857.00,0.0009
3844.00,0.0010
3831.00,0.0009
3818.00,0.0008
3805.00,0.0009
3792.00,0.0010
3779.00,0.0010
3766.00,0.0009
3753.00,0.0009
3740.00,0.0007
3727.00,0.0008
3714.00,0.0009
3701.00,0.0008
3688.00,0.0007
3675.00,0.0006
3662.00,0.0009
3649.00,0.0007
3636.00,0.0010
3623.00,0.0008
3610.00,0.0008
3597.00,0.0011
3584.00,0.0010
3571.00,0.0012
3558.00,0.0014
3545.00,0.0014
3532.00,0.0016
3519.00,0.0016
3506.00,0.0018
3493.00,0.0019
3480.00,0.0020
3467.00,0.0021
3454.00,0.0021
3441.00,0.0023
3428.00,0.0024
3415.00,0.0026
3402.00,0.0026
3389.00,0.0027
3376.00,0.0027
3363.00,0.0028
3350.00,0.0029
3337.00,0.0030
3324.00,0.0030
3311.00,0.0029
3298.00,0.0029
3285.00,0.0029
3272.00,0.0028
3259.00,0.0026
3246.00,0.0025
3233.00,0.0024
3220.00,0.0023
3207.00,0.0022
3194.00,0.0021
3181.00,0.0019
3168.00,0.0019
3155.00,0.0018
3142.00,0.0018
3129.00,0.0017
3116.00,0.0018
3103.00,0.0024
3090.00,0.0027
3077.00,0.0036
3064.00,0.0045
3051.00,0.0037
3038.00,0.0038
3025.00,0.0090
3012.00,0.0032
2999.00,0.0032
2986.00,0.0024
2973.00,0.0028
2960.00,0.0036
2947.00,0.0050
2934.00,0.0086
2921.00,0.0118
2908.00,0.0094
2895.00,0.0062
2882.00,0.0048
2869.00,0.0041
2856.00,0.0054
2843.00,0.0050
2830.00,0.0024
2817.00,0.0019
2804.00,0.0018
2791.00,0.0017
2778.00,0.0016
2765.00,0.0015
2752.00,0.0015
2739.00,0.0015
2726.00,0.0015
2713.00,0.0015
2700.00,0.0014
2687.00,0.0014
2674.00,0.0014
2661.00,0.0017
2648.00,0.0019
2635.00,0.0018
2622.00,0.0016
2609.00,0.0016
2596.00,0.0016
2583.00,0.0013
2570.00,0.0012
2557.00,0.0012
2544.00,0.0012
2531.00,0.0011
2518.00,0.0010
2505.00,0.0010
2492.00,0.0010
2479.00,0.0010
2466.00,0.0009
2453.00,0.0011
2440.00,0.0009
2427.00,0.0008
2414.00,0.0007
2401.00,0.0007
2388.00,0.0006
2375.00,0.0004
2362.00,0.0005
2349.00,0.0006
2336.00,0.0010
2323.00,0.0020
2310.00,0.0013
2297.00,0.0013
2284.00,0.0017
2271.00,0.0013
2258.00,0.0011
2245.00,0.0011
2232.00,0.0011
2219.00,0.0009
2206.00,0.0010
2193.00,0.0011
2180.00,0.0006
2167.00,0.0016
2154.00,-0.0011
2141.00,-0.0006
2128.00,-0.0004
2115.00,0.0006
2102.00,0.0006
2089.00,0.0005
2076.00,0.0007
2063.00,0.0004
2050.00,0.0015
2037.00,0.0009
2024.00,-0.0000
2011.00,0.0001
1998.00,-0.0001
1985.00,0.0009
1972.00,-0.0002
1959.00,-0.0001
1946.00,0.0011
1933.00,0.0004
1920.00,0.0002
1907.00,0.0003
1894.00,0.0005
1881.00,0.0010
1868.00,0.0012
1855.00,0.0007
1842.00,0.0005
1829.00,0.0007
1816.00,0.0009
1803.00,0.0017
1790.00,0.0012
1777.00,0.0011
1764.00,0.0014
1751.00,0.0021
1738.00,0.0025
1725.00,0.0023
1712.00,0.0021
1699.00,0.0026
1686.00,0.0050
1673.00,0.0067
1660.00,0.0068
1647.00,0.0048
1634.00,0.0031
1621.00,0.0031
1608.00,0.0050
1595.00,0.0060
1582.00,0.0050
1569.00,0.0019
1556.00,0.0017
1543.00,0.0023
1530.00,0.0019
1517.00,0.0019
1504.00,0.0030
1491.00,0.0238
1478.00,0.0040
1465.00,0.0053
1452.00,0.0260
1439.00,0.0122
1426.00,0.0060
1413.00,0.0040
1400.00,0.0039
1387.00,0.0050
1374.00,0.0074
1361.00,0.0071
1348.00,0.0062
1335.00,0.0061
1322.00,0.0067
1309.00,0.0068
1296.00,0.0069
1283.00,0.0068
1270.00,0.0054
1257.00,0.0043
1244.00,0.0045
1231.00,0.0045
1218.00,0.0045
1205.00,0.0051
1192.00,0.0060
1179.00,0.0070
1166.00,0.0057
1153.00,0.0083
1140.00,0.0045
1127.00,0.0049
1114.00,0.0063
1101.00,0.0067
1088.00,0.0071
1075.00,0.0100
1062.00,0.0114
1049.00,0.0089
1036.00,0.0105
1023.00,0.0152
1010.00,0.0099
997.00,0.0088
984.00,0.0094
971.00,0.0086
958.00,0.0081
945.00,0.0077
932.00,0.0061
919.00,0.0065
906.00,0.0123
893.00,0.0059
880.00,0.0048
867.00,0.0043
854.00,0.0047
841.00,0.0073
828.00,0.0043
815.00,0.0043
802.00,0.0044
789.00,0.0067
776.00,0.0146
763.00,0.0354
750.00,0.0452
737.00,0.0208
724.00,0.0075
711.00,0.0143
698.00,0.1185
685.00,0.0482
672.00,0.0230
659.00,0.0152
646.00,0.0106
633.00,0.0112
620.00,0.0131
607.00,0.0108
594.00,0.0120
581.00,0.0148
568.00,0.0224
555.00,0.0311
542.00,0.0464
529.00,0.0351
516.00,0.0196
503.00,0.0138
490.00,0.0124
477.00,0.0106
464.00,0.0100
451.00,0.0094
438.00,0.0088
425.00,0.0073
412.00,0.0090
400.00,0.0076