File: FTIR/Olivia/2025_07_24_Polystyrene_Std_scan1.csv
Created as New Dataset,Sample 905 By YargerLab Date Thursday, July 24 2025
cm-1,A
4000.00,0.0003
3987.00,0.0002
3974.00,0.0002
3961.00,0.0002
3948.00,0.0002
3935.00,0.0003
3922.00,0.0002
3909.00,0.0002
3896.00,0.0002
3883.00,0.0003
3870.00,0.0003
3857.00,0.0004
3844.00,0.0004
3831.00,0.0004
3818.00,0.0005
3805.00,0.0004
3792.00,0.0003
3779.00,0.0003
3766.00,0.0004
3753.00,0.0006
3740.00,0.0005
3727.00,0.0004
3714.00,0.0004
3701.00,0.0003
3688.00,0.0004
3675.00,0.0005
3662.00,0.0003
3649.00,0.0005
3636.00,0.0003
3623.00,0.0003
3610.00,0.0003
3597.00,0.0003
3584.00,0.0003
3571.00,0.0003
3558.00,0.0004
3545.00,0.0005
3532.00,0.0006
3519.00,0.0006
3506.00,0.0007
3493.00,0.0007
3480.00,0.0008
3467.00,0.0008
3454.00,0.0008
3441.00,0.0009
3428.00,0.0008
3415.00,0.0008
3402.00,0.0008
3389.00,0.0008
3376.00,0.0009
3363.00,0.0009
3350.00,0.0008
3337.00,0.0009
3324.00,0.0008
3311.00,0.0009
3298.00,0.0008
3285.00,0.0009
3272.00,0.0008
3259.00,0.0008
3246.00,0.0008
3233.00,0.0007
3220.00,0.0007
3207.00,0.0008
3194.00,0.0008
3181.00,0.0007
3168.00,0.0007
3155.00,0.0007
3142.00,0.0006
3129.00,0.0006
3116.00,0.0009
3103.00,0.0021
3090.00,0.0030
3077.00,0.0044
3064.00,0.0065
3051.00,0.0047
3038.00,0.0052
3025.00,0.0146
3012.00,0.0041
2999.00,0.0040
2986.00,0.0022
2973.00,0.0026
2960.00,0.0040
2947.00,0.0069
2934.00,0.0137
2921.00,0.0187
2908.00,0.0143
2895.00,0.0086
2882.00,0.0060
2869.00,0.0049
2856.00,0.0073
2843.00,0.0066
2830.00,0.0022
2817.00,0.0015
2804.00,0.0013
2791.00,0.0011
2778.00,0.0010
2765.00,0.0009
2752.00,0.0008
2739.00,0.0008
2726.00,0.0009
2713.00,0.0009
2700.00,0.0008
2687.00,0.0008
2674.00,0.0008
2661.00,0.0012
2648.00,0.0013
2635.00,0.0014
2622.00,0.0012
2609.00,0.0012
2596.00,0.0010
2583.00,0.0009
2570.00,0.0007
2557.00,0.0007
2544.00,0.0005
2531.00,0.0006
2518.00,0.0006
2505.00,0.0005
2492.00,0.0005
2479.00,0.0005
2466.00,0.0004
2453.00,0.0005
2440.00,0.0004
2427.00,0.0002
2414.00,0.0002
2401.00,0.0000
2388.00,-0.0000
2375.00,-0.0000
2362.00,0.0002
2349.00,0.0003
2336.00,0.0006
2323.00,0.0016
2310.00,0.0009
2297.00,0.0011
2284.00,0.0013
2271.00,0.0008
2258.00,0.0007
2245.00,0.0007
2232.00,0.0005
2219.00,0.0006
2206.00,0.0004
2193.00,0.0005
2180.00,0.0002
2167.00,0.0011
2154.00,-0.0020
2141.00,-0.0015
2128.00,-0.0012
2115.00,0.0000
2102.00,0.0001
2089.00,-0.0001
2076.00,0.0002
2063.00,-0.0000
2050.00,0.0008
2037.00,0.0006
2024.00,-0.0006
2011.00,-0.0004
1998.00,-0.0004
1985.00,0.0005
1972.00,-0.0005
1959.00,-0.0001
1946.00,0.0013
1933.00,0.0004
1920.00,-0.0000
1907.00,-0.0001
1894.00,0.0003
1881.00,0.0012
1868.00,0.0014
1855.00,0.0003
1842.00,0.0000
1829.00,0.0004
1816.00,0.0008
1803.00,0.0019
1790.00,0.0011
1777.00,0.0009
1764.00,0.0012
1751.00,0.0022
1738.00,0.0029
1725.00,0.0022
1712.00,0.0020
1699.00,0.0022
1686.00,0.0033
1673.00,0.0038
1660.00,0.0036
1647.00,0.0026
1634.00,0.0020
1621.00,0.0019
1608.00,0.0057
1595.00,0.0073
1582.00,0.0058
1569.00,0.0016
1556.00,0.0014
1543.00,0.0022
1530.00,0.0014
1517.00,0.0012
1504.00,0.0030
1491.00,0.0311
1478.00,0.0042
1465.00,0.0048
1452.00,0.0351
1439.00,0.0141
1426.00,0.0049
1413.00,0.0034
1400.00,0.0031
1387.00,0.0052
1374.00,0.0082
1361.00,0.0076
1348.00,0.0069
1335.00,0.0061
1322.00,0.0066
1309.00,0.0066
1296.00,0.0057
1283.00,0.0052
1270.00,0.0041
1257.00,0.0036
1244.00,0.0037
1231.00,0.0036
1218.00,0.0038
1205.00,0.0046
1192.00,0.0057
1179.00,0.0073
1166.00,0.0046
1153.00,0.0076
1140.00,0.0034
1127.00,0.0032
1114.00,0.0043
1101.00,0.0044
1088.00,0.0054
1075.00,0.0087
1062.00,0.0086
1049.00,0.0057
1036.00,0.0080
1023.00,0.0131
1010.00,0.0072
997.00,0.0056
984.00,0.0064
971.00,0.0064
958.00,0.0061
945.00,0.0057
932.00,0.0044
919.00,0.0049
906.00,0.0120
893.00,0.0045
880.00,0.0030
867.00,0.0027
854.00,0.0030
841.00,0.0061
828.00,0.0027
815.00,0.0024
802.00,0.0029
789.00,0.0057
776.00,0.0149
763.00,0.0385
750.00,0.0491
737.00,0.0220
724.00,0.0057
711.00,0.0136
698.00,0.1140
685.00,0.0456
672.00,0.0215
659.00,0.0132
646.00,0.0086
633.00,0.0094
620.00,0.0111
607.00,0.0087
594.00,0.0098
581.00,0.0126
568.00,0.0202
555.00,0.0291
542.00,0.0443
529.00,0.0325
516.00,0.0165
503.00,0.0110
490.00,0.0089
477.00,0.0074
464.00,0.0069
451.00,0.0062
438.00,0.0062
425.00,0.0061
412.00,0.0060
400.00,0.0021