File: FTIR/Olivia/2025_08_01_1CBN_3PVP90_mortar_dry_scan2.csv
Created as New Dataset,Sample 1027 By YargerLab Date Friday, August 01 2025
cm-1,A
4000.00,0.0035
3987.00,0.0034
3974.00,0.0035
3961.00,0.0034
3948.00,0.0035
3935.00,0.0035
3922.00,0.0035
3909.00,0.0034
3896.00,0.0036
3883.00,0.0036
3870.00,0.0036
3857.00,0.0036
3844.00,0.0036
3831.00,0.0036
3818.00,0.0037
3805.00,0.0036
3792.00,0.0034
3779.00,0.0034
3766.00,0.0035
3753.00,0.0037
3740.00,0.0037
3727.00,0.0034
3714.00,0.0035
3701.00,0.0033
3688.00,0.0034
3675.00,0.0034
3662.00,0.0033
3649.00,0.0035
3636.00,0.0033
3623.00,0.0034
3610.00,0.0037
3597.00,0.0036
3584.00,0.0037
3571.00,0.0037
3558.00,0.0039
3545.00,0.0041
3532.00,0.0042
3519.00,0.0044
3506.00,0.0047
3493.00,0.0049
3480.00,0.0054
3467.00,0.0061
3454.00,0.0068
3441.00,0.0077
3428.00,0.0089
3415.00,0.0104
3402.00,0.0113
3389.00,0.0108
3376.00,0.0099
3363.00,0.0092
3350.00,0.0087
3337.00,0.0086
3324.00,0.0088
3311.00,0.0091
3298.00,0.0096
3285.00,0.0103
3272.00,0.0109
3259.00,0.0116
3246.00,0.0122
3233.00,0.0124
3220.00,0.0124
3207.00,0.0117
3194.00,0.0109
3181.00,0.0100
3168.00,0.0092
3155.00,0.0082
3142.00,0.0075
3129.00,0.0069
3116.00,0.0065
3103.00,0.0060
3090.00,0.0059
3077.00,0.0059
3064.00,0.0057
3051.00,0.0058
3038.00,0.0058
3025.00,0.0057
3012.00,0.0053
2999.00,0.0062
2986.00,0.0082
2973.00,0.0111
2960.00,0.0156
2947.00,0.0125
2934.00,0.0192
2921.00,0.0228
2908.00,0.0148
2895.00,0.0111
2882.00,0.0098
2869.00,0.0121
2856.00,0.0179
2843.00,0.0107
2830.00,0.0071
2817.00,0.0060
2804.00,0.0055
2791.00,0.0052
2778.00,0.0049
2765.00,0.0048
2752.00,0.0049
2739.00,0.0050
2726.00,0.0051
2713.00,0.0049
2700.00,0.0048
2687.00,0.0047
2674.00,0.0047
2661.00,0.0050
2648.00,0.0051
2635.00,0.0050
2622.00,0.0047
2609.00,0.0046
2596.00,0.0048
2583.00,0.0047
2570.00,0.0046
2557.00,0.0044
2544.00,0.0043
2531.00,0.0042
2518.00,0.0042
2505.00,0.0040
2492.00,0.0040
2479.00,0.0039
2466.00,0.0039
2453.00,0.0041
2440.00,0.0038
2427.00,0.0038
2414.00,0.0036
2401.00,0.0035
2388.00,0.0035
2375.00,0.0029
2362.00,0.0030
2349.00,0.0038
2336.00,0.0033
2323.00,0.0040
2310.00,0.0033
2297.00,0.0037
2284.00,0.0043
2271.00,0.0040
2258.00,0.0036
2245.00,0.0037
2232.00,0.0037
2219.00,0.0035
2206.00,0.0036
2193.00,0.0036
2180.00,0.0034
2167.00,0.0044
2154.00,0.0016
2141.00,0.0024
2128.00,0.0025
2115.00,0.0031
2102.00,0.0031
2089.00,0.0031
2076.00,0.0034
2063.00,0.0032
2050.00,0.0035
2037.00,0.0029
2024.00,0.0028
2011.00,0.0028
1998.00,0.0029
1985.00,0.0033
1972.00,0.0022
1959.00,0.0022
1946.00,0.0026
1933.00,0.0026
1920.00,0.0028
1907.00,0.0033
1894.00,0.0032
1881.00,0.0030
1868.00,0.0030
1855.00,0.0031
1842.00,0.0031
1829.00,0.0031
1816.00,0.0029
1803.00,0.0031
1790.00,0.0032
1777.00,0.0033
1764.00,0.0032
1751.00,0.0033
1738.00,0.0034
1725.00,0.0038
1712.00,0.0041
1699.00,0.0056
1686.00,0.0102
1673.00,0.0121
1660.00,0.0132
1647.00,0.0131
1634.00,0.0122
1621.00,0.0304
1608.00,0.0224
1595.00,0.0115
1582.00,0.0243
1569.00,0.0148
1556.00,0.0076
1543.00,0.0065
1530.00,0.0059
1517.00,0.0071
1504.00,0.0090
1491.00,0.0132
1478.00,0.0073
1465.00,0.0169
1452.00,0.0150
1439.00,0.0214
1426.00,0.0258
1413.00,0.0184
1400.00,0.0295
1387.00,0.0194
1374.00,0.0147
1361.00,0.0225
1348.00,0.0174
1335.00,0.0126
1322.00,0.0133
1309.00,0.0121
1296.00,0.0209
1283.00,0.0242
1270.00,0.0149
1257.00,0.0105
1244.00,0.0164
1231.00,0.0219
1218.00,0.0163
1205.00,0.0130
1192.00,0.0241
1179.00,0.0103
1166.00,0.0087
1153.00,0.0235
1140.00,0.0090
1127.00,0.0277
1114.00,0.0124
1101.00,0.0175
1088.00,0.0085
1075.00,0.0085
1062.00,0.0155
1049.00,0.0399
1036.00,0.0191
1023.00,0.0293
1010.00,0.0125
997.00,0.0154
984.00,0.0094
971.00,0.0085
958.00,0.0067
945.00,0.0051
932.00,0.0091
919.00,0.0097
906.00,0.0069
893.00,0.0095
880.00,0.0081
867.00,0.0227
854.00,0.0156
841.00,0.0141
828.00,0.0157
815.00,0.0285
802.00,0.0077
789.00,0.0069
776.00,0.0088
763.00,0.0080
750.00,0.0083
737.00,0.0150
724.00,0.0126
711.00,0.0121
698.00,0.0134
685.00,0.0139
672.00,0.0171
659.00,0.0166
646.00,0.0133
633.00,0.0125
620.00,0.0155
607.00,0.0151
594.00,0.0197
581.00,0.0190
568.00,0.0167
555.00,0.0184
542.00,0.0202
529.00,0.0206
516.00,0.0141
503.00,0.0142
490.00,0.0140
477.00,0.0126
464.00,0.0116
451.00,0.0106
438.00,0.0108
425.00,0.0103
412.00,0.0124
400.00,0.0093