File: FTIR/Olivia/2025_07_16_Polystyrene_Std_scan2.csv
Created as New Dataset,Sample 832 By YargerLab Date Wednesday, July 16 2025
cm-1,A
4000.00,0.0004
3987.00,0.0004
3974.00,0.0004
3961.00,0.0004
3948.00,0.0004
3935.00,0.0004
3922.00,0.0003
3909.00,0.0003
3896.00,0.0002
3883.00,0.0002
3870.00,0.0002
3857.00,0.0002
3844.00,0.0003
3831.00,0.0003
3818.00,0.0001
3805.00,0.0003
3792.00,0.0004
3779.00,0.0004
3766.00,0.0003
3753.00,0.0002
3740.00,0.0001
3727.00,0.0002
3714.00,0.0002
3701.00,0.0003
3688.00,0.0001
3675.00,0.0002
3662.00,0.0004
3649.00,0.0002
3636.00,0.0004
3623.00,0.0004
3610.00,0.0004
3597.00,0.0006
3584.00,0.0006
3571.00,0.0007
3558.00,0.0010
3545.00,0.0010
3532.00,0.0013
3519.00,0.0013
3506.00,0.0014
3493.00,0.0015
3480.00,0.0015
3467.00,0.0016
3454.00,0.0017
3441.00,0.0017
3428.00,0.0017
3415.00,0.0017
3402.00,0.0018
3389.00,0.0017
3376.00,0.0017
3363.00,0.0016
3350.00,0.0016
3337.00,0.0016
3324.00,0.0015
3311.00,0.0015
3298.00,0.0016
3285.00,0.0015
3272.00,0.0015
3259.00,0.0015
3246.00,0.0014
3233.00,0.0014
3220.00,0.0013
3207.00,0.0013
3194.00,0.0013
3181.00,0.0011
3168.00,0.0012
3155.00,0.0011
3142.00,0.0012
3129.00,0.0010
3116.00,0.0012
3103.00,0.0021
3090.00,0.0027
3077.00,0.0037
3064.00,0.0051
3051.00,0.0039
3038.00,0.0041
3025.00,0.0113
3012.00,0.0034
2999.00,0.0034
2986.00,0.0019
2973.00,0.0021
2960.00,0.0029
2947.00,0.0051
2934.00,0.0100
2921.00,0.0139
2908.00,0.0107
2895.00,0.0065
2882.00,0.0045
2869.00,0.0036
2856.00,0.0053
2843.00,0.0051
2830.00,0.0017
2817.00,0.0013
2804.00,0.0012
2791.00,0.0010
2778.00,0.0009
2765.00,0.0008
2752.00,0.0008
2739.00,0.0008
2726.00,0.0009
2713.00,0.0009
2700.00,0.0008
2687.00,0.0008
2674.00,0.0008
2661.00,0.0012
2648.00,0.0014
2635.00,0.0014
2622.00,0.0012
2609.00,0.0011
2596.00,0.0010
2583.00,0.0009
2570.00,0.0007
2557.00,0.0007
2544.00,0.0006
2531.00,0.0006
2518.00,0.0006
2505.00,0.0005
2492.00,0.0004
2479.00,0.0005
2466.00,0.0004
2453.00,0.0005
2440.00,0.0003
2427.00,0.0002
2414.00,0.0003
2401.00,0.0001
2388.00,0.0000
2375.00,0.0001
2362.00,0.0003
2349.00,0.0005
2336.00,0.0008
2323.00,0.0019
2310.00,0.0011
2297.00,0.0011
2284.00,0.0016
2271.00,0.0011
2258.00,0.0008
2245.00,0.0009
2232.00,0.0007
2219.00,0.0006
2206.00,0.0005
2193.00,0.0007
2180.00,0.0006
2167.00,0.0017
2154.00,-0.0019
2141.00,-0.0013
2128.00,-0.0010
2115.00,0.0003
2102.00,0.0002
2089.00,-0.0000
2076.00,0.0001
2063.00,0.0002
2050.00,0.0014
2037.00,0.0007
2024.00,-0.0006
2011.00,-0.0009
1998.00,-0.0003
1985.00,0.0007
1972.00,-0.0005
1959.00,-0.0004
1946.00,0.0007
1933.00,0.0002
1920.00,-0.0001
1907.00,-0.0001
1894.00,0.0004
1881.00,0.0008
1868.00,0.0011
1855.00,0.0003
1842.00,0.0001
1829.00,0.0002
1816.00,0.0006
1803.00,0.0015
1790.00,0.0009
1777.00,0.0006
1764.00,0.0008
1751.00,0.0015
1738.00,0.0020
1725.00,0.0016
1712.00,0.0013
1699.00,0.0013
1686.00,0.0021
1673.00,0.0031
1660.00,0.0032
1647.00,0.0043
1634.00,0.0053
1621.00,0.0039
1608.00,0.0062
1595.00,0.0074
1582.00,0.0059
1569.00,0.0020
1556.00,0.0019
1543.00,0.0024
1530.00,0.0017
1517.00,0.0018
1504.00,0.0033
1491.00,0.0303
1478.00,0.0042
1465.00,0.0052
1452.00,0.0329
1439.00,0.0140
1426.00,0.0042
1413.00,0.0032
1400.00,0.0033
1387.00,0.0052
1374.00,0.0078
1361.00,0.0075
1348.00,0.0066
1335.00,0.0059
1322.00,0.0067
1309.00,0.0068
1296.00,0.0068
1283.00,0.0050
1270.00,0.0038
1257.00,0.0037
1244.00,0.0041
1231.00,0.0040
1218.00,0.0042
1205.00,0.0053
1192.00,0.0062
1179.00,0.0079
1166.00,0.0051
1153.00,0.0082
1140.00,0.0039
1127.00,0.0036
1114.00,0.0048
1101.00,0.0049
1088.00,0.0060
1075.00,0.0094
1062.00,0.0093
1049.00,0.0064
1036.00,0.0088
1023.00,0.0146
1010.00,0.0080
997.00,0.0064
984.00,0.0074
971.00,0.0074
958.00,0.0069
945.00,0.0068
932.00,0.0051
919.00,0.0060
906.00,0.0139
893.00,0.0054
880.00,0.0039
867.00,0.0036
854.00,0.0041
841.00,0.0074
828.00,0.0035
815.00,0.0035
802.00,0.0042
789.00,0.0073
776.00,0.0173
763.00,0.0442
750.00,0.0587
737.00,0.0263
724.00,0.0078
711.00,0.0160
698.00,0.1478
685.00,0.0653
672.00,0.0297
659.00,0.0184
646.00,0.0120
633.00,0.0128
620.00,0.0152
607.00,0.0123
594.00,0.0133
581.00,0.0164
568.00,0.0265
555.00,0.0378
542.00,0.0593
529.00,0.0453
516.00,0.0236
503.00,0.0162
490.00,0.0134
477.00,0.0110
464.00,0.0114
451.00,0.0101
438.00,0.0100
425.00,0.0075
412.00,0.0101
400.00,0.0075