File: FTIR/Olivia/2025_08_04_Polystyrene_film_scan3.csv
Created as New Dataset,Sample 1031 By YargerLab Date Monday, August 04 2025
cm-1,A
4000.00,0.0002
3987.00,0.0002
3974.00,0.0002
3961.00,0.0002
3948.00,0.0001
3935.00,0.0002
3922.00,0.0002
3909.00,0.0001
3896.00,0.0001
3883.00,0.0001
3870.00,0.0001
3857.00,0.0001
3844.00,0.0001
3831.00,0.0002
3818.00,0.0000
3805.00,0.0002
3792.00,0.0002
3779.00,0.0002
3766.00,0.0002
3753.00,0.0001
3740.00,-0.0001
3727.00,-0.0000
3714.00,0.0001
3701.00,0.0000
3688.00,0.0000
3675.00,-0.0001
3662.00,0.0001
3649.00,-0.0002
3636.00,0.0001
3623.00,-0.0001
3610.00,0.0000
3597.00,0.0001
3584.00,0.0000
3571.00,0.0000
3558.00,0.0002
3545.00,0.0002
3532.00,0.0002
3519.00,0.0004
3506.00,0.0004
3493.00,0.0004
3480.00,0.0005
3467.00,0.0005
3454.00,0.0005
3441.00,0.0005
3428.00,0.0005
3415.00,0.0005
3402.00,0.0005
3389.00,0.0005
3376.00,0.0005
3363.00,0.0005
3350.00,0.0005
3337.00,0.0005
3324.00,0.0005
3311.00,0.0004
3298.00,0.0004
3285.00,0.0004
3272.00,0.0004
3259.00,0.0004
3246.00,0.0004
3233.00,0.0003
3220.00,0.0003
3207.00,0.0003
3194.00,0.0002
3181.00,0.0002
3168.00,0.0002
3155.00,0.0003
3142.00,0.0002
3129.00,0.0002
3116.00,0.0003
3103.00,0.0010
3090.00,0.0014
3077.00,0.0023
3064.00,0.0032
3051.00,0.0025
3038.00,0.0026
3025.00,0.0079
3012.00,0.0020
2999.00,0.0017
2986.00,0.0007
2973.00,0.0010
2960.00,0.0023
2947.00,0.0037
2934.00,0.0082
2921.00,0.0130
2908.00,0.0089
2895.00,0.0050
2882.00,0.0032
2869.00,0.0027
2856.00,0.0048
2843.00,0.0041
2830.00,0.0010
2817.00,0.0006
2804.00,0.0005
2791.00,0.0004
2778.00,0.0004
2765.00,0.0003
2752.00,0.0003
2739.00,0.0003
2726.00,0.0002
2713.00,0.0003
2700.00,0.0003
2687.00,0.0003
2674.00,0.0003
2661.00,0.0006
2648.00,0.0008
2635.00,0.0008
2622.00,0.0006
2609.00,0.0006
2596.00,0.0005
2583.00,0.0004
2570.00,0.0002
2557.00,0.0003
2544.00,0.0002
2531.00,0.0002
2518.00,0.0001
2505.00,0.0001
2492.00,0.0001
2479.00,0.0000
2466.00,0.0001
2453.00,0.0001
2440.00,0.0001
2427.00,-0.0001
2414.00,-0.0002
2401.00,-0.0002
2388.00,-0.0003
2375.00,-0.0003
2362.00,-0.0002
2349.00,-0.0001
2336.00,0.0002
2323.00,0.0012
2310.00,0.0005
2297.00,0.0006
2284.00,0.0010
2271.00,0.0005
2258.00,0.0005
2245.00,0.0002
2232.00,0.0003
2219.00,0.0001
2206.00,0.0002
2193.00,0.0001
2180.00,-0.0000
2167.00,0.0008
2154.00,-0.0022
2141.00,-0.0017
2128.00,-0.0011
2115.00,-0.0001
2102.00,-0.0001
2089.00,-0.0004
2076.00,0.0000
2063.00,-0.0004
2050.00,0.0007
2037.00,-0.0001
2024.00,-0.0005
2011.00,-0.0009
1998.00,-0.0006
1985.00,0.0005
1972.00,-0.0008
1959.00,-0.0007
1946.00,0.0000
1933.00,-0.0003
1920.00,-0.0005
1907.00,-0.0005
1894.00,-0.0002
1881.00,0.0002
1868.00,0.0003
1855.00,-0.0002
1842.00,-0.0005
1829.00,-0.0002
1816.00,-0.0000
1803.00,0.0008
1790.00,0.0003
1777.00,0.0001
1764.00,0.0004
1751.00,0.0009
1738.00,0.0012
1725.00,0.0008
1712.00,0.0006
1699.00,0.0002
1686.00,-0.0003
1673.00,0.0009
1660.00,0.0015
1647.00,0.0011
1634.00,0.0008
1621.00,0.0007
1608.00,0.0029
1595.00,0.0043
1582.00,0.0034
1569.00,0.0007
1556.00,0.0006
1543.00,0.0012
1530.00,0.0007
1517.00,0.0006
1504.00,0.0016
1491.00,0.0213
1478.00,0.0025
1465.00,0.0031
1452.00,0.0229
1439.00,0.0085
1426.00,0.0021
1413.00,0.0015
1400.00,0.0014
1387.00,0.0029
1374.00,0.0049
1361.00,0.0045
1348.00,0.0041
1335.00,0.0038
1322.00,0.0040
1309.00,0.0041
1296.00,0.0034
1283.00,0.0027
1270.00,0.0021
1257.00,0.0020
1244.00,0.0022
1231.00,0.0022
1218.00,0.0024
1205.00,0.0031
1192.00,0.0039
1179.00,0.0052
1166.00,0.0031
1153.00,0.0053
1140.00,0.0022
1127.00,0.0022
1114.00,0.0031
1101.00,0.0032
1088.00,0.0039
1075.00,0.0064
1062.00,0.0063
1049.00,0.0041
1036.00,0.0060
1023.00,0.0102
1010.00,0.0056
997.00,0.0043
984.00,0.0050
971.00,0.0049
958.00,0.0048
945.00,0.0047
932.00,0.0033
919.00,0.0040
906.00,0.0097
893.00,0.0034
880.00,0.0022
867.00,0.0020
854.00,0.0022
841.00,0.0048
828.00,0.0021
815.00,0.0020
802.00,0.0024
789.00,0.0047
776.00,0.0126
763.00,0.0333
750.00,0.0430
737.00,0.0185
724.00,0.0050
711.00,0.0118
698.00,0.1178
685.00,0.0462
672.00,0.0202
659.00,0.0119
646.00,0.0070
633.00,0.0078
620.00,0.0096
607.00,0.0075
594.00,0.0083
581.00,0.0110
568.00,0.0186
555.00,0.0273
542.00,0.0436
529.00,0.0321
516.00,0.0161
503.00,0.0104
490.00,0.0081
477.00,0.0069
464.00,0.0065
451.00,0.0064
438.00,0.0046
425.00,0.0047
412.00,0.0055
400.00,0.0011