File: FTIR/Olivia/2025_06_24_Polystyrene_Std_scan2.csv
Created as New Dataset,Sample 716 By YargerLab Date Tuesday, June 24 2025
cm-1,A
4000.00,0.0016
3987.00,0.0016
3974.00,0.0016
3961.00,0.0015
3948.00,0.0016
3935.00,0.0016
3922.00,0.0016
3909.00,0.0016
3896.00,0.0016
3883.00,0.0016
3870.00,0.0016
3857.00,0.0017
3844.00,0.0016
3831.00,0.0017
3818.00,0.0018
3805.00,0.0017
3792.00,0.0017
3779.00,0.0016
3766.00,0.0017
3753.00,0.0018
3740.00,0.0017
3727.00,0.0015
3714.00,0.0016
3701.00,0.0016
3688.00,0.0014
3675.00,0.0009
3662.00,0.0006
3649.00,0.0009
3636.00,0.0009
3623.00,0.0013
3610.00,0.0015
3597.00,0.0014
3584.00,0.0014
3571.00,0.0015
3558.00,0.0014
3545.00,0.0015
3532.00,0.0015
3519.00,0.0015
3506.00,0.0016
3493.00,0.0016
3480.00,0.0015
3467.00,0.0016
3454.00,0.0016
3441.00,0.0015
3428.00,0.0016
3415.00,0.0016
3402.00,0.0015
3389.00,0.0016
3376.00,0.0015
3363.00,0.0015
3350.00,0.0015
3337.00,0.0015
3324.00,0.0015
3311.00,0.0016
3298.00,0.0015
3285.00,0.0015
3272.00,0.0016
3259.00,0.0015
3246.00,0.0015
3233.00,0.0014
3220.00,0.0014
3207.00,0.0015
3194.00,0.0014
3181.00,0.0014
3168.00,0.0015
3155.00,0.0015
3142.00,0.0015
3129.00,0.0016
3116.00,0.0019
3103.00,0.0039
3090.00,0.0052
3077.00,0.0076
3064.00,0.0108
3051.00,0.0081
3038.00,0.0087
3025.00,0.0245
3012.00,0.0060
2999.00,0.0024
2986.00,-0.0029
2973.00,-0.0039
2960.00,0.0004
2947.00,0.0069
2934.00,0.0183
2921.00,0.0272
2908.00,0.0199
2895.00,0.0104
2882.00,0.0064
2869.00,0.0056
2856.00,0.0101
2843.00,0.0102
2830.00,0.0035
2817.00,0.0027
2804.00,0.0026
2791.00,0.0023
2778.00,0.0022
2765.00,0.0021
2752.00,0.0021
2739.00,0.0021
2726.00,0.0021
2713.00,0.0021
2700.00,0.0021
2687.00,0.0021
2674.00,0.0021
2661.00,0.0024
2648.00,0.0025
2635.00,0.0026
2622.00,0.0024
2609.00,0.0024
2596.00,0.0023
2583.00,0.0022
2570.00,0.0020
2557.00,0.0019
2544.00,0.0019
2531.00,0.0019
2518.00,0.0018
2505.00,0.0018
2492.00,0.0018
2479.00,0.0017
2466.00,0.0017
2453.00,0.0017
2440.00,0.0016
2427.00,0.0014
2414.00,0.0014
2401.00,0.0014
2388.00,0.0013
2375.00,0.0013
2362.00,0.0015
2349.00,0.0016
2336.00,0.0020
2323.00,0.0028
2310.00,0.0023
2297.00,0.0022
2284.00,0.0026
2271.00,0.0022
2258.00,0.0019
2245.00,0.0019
2232.00,0.0017
2219.00,0.0017
2206.00,0.0016
2193.00,0.0016
2180.00,0.0011
2167.00,0.0023
2154.00,-0.0007
2141.00,-0.0004
2128.00,-0.0001
2115.00,0.0013
2102.00,0.0010
2089.00,0.0012
2076.00,0.0014
2063.00,0.0010
2050.00,0.0020
2037.00,0.0012
2024.00,0.0005
2011.00,0.0007
1998.00,0.0007
1985.00,0.0024
1972.00,0.0010
1959.00,0.0013
1946.00,0.0036
1933.00,0.0024
1920.00,0.0013
1907.00,0.0012
1894.00,0.0020
1881.00,0.0031
1868.00,0.0037
1855.00,0.0020
1842.00,0.0014
1829.00,0.0018
1816.00,0.0027
1803.00,0.0043
1790.00,0.0028
1777.00,0.0022
1764.00,0.0025
1751.00,0.0039
1738.00,0.0044
1725.00,0.0034
1712.00,0.0028
1699.00,0.0027
1686.00,0.0029
1673.00,0.0032
1660.00,0.0028
1647.00,0.0024
1634.00,0.0025
1621.00,0.0031
1608.00,0.0098
1595.00,0.0129
1582.00,0.0104
1569.00,0.0035
1556.00,0.0033
1543.00,0.0047
1530.00,0.0035
1517.00,0.0032
1504.00,0.0057
1491.00,0.0562
1478.00,0.0068
1465.00,0.0064
1452.00,0.0627
1439.00,0.0224
1426.00,0.0065
1413.00,0.0044
1400.00,0.0029
1387.00,0.0052
1374.00,0.0107
1361.00,0.0111
1348.00,0.0104
1335.00,0.0096
1322.00,0.0105
1309.00,0.0109
1296.00,0.0086
1283.00,0.0076
1270.00,0.0052
1257.00,0.0040
1244.00,0.0046
1231.00,0.0050
1218.00,0.0057
1205.00,0.0076
1192.00,0.0094
1179.00,0.0111
1166.00,0.0049
1153.00,0.0098
1140.00,0.0028
1127.00,0.0032
1114.00,0.0059
1101.00,0.0061
1088.00,0.0072
1075.00,0.0129
1062.00,0.0133
1049.00,0.0091
1036.00,0.0139
1023.00,0.0243
1010.00,0.0130
997.00,0.0102
984.00,0.0116
971.00,0.0097
958.00,0.0084
945.00,0.0084
932.00,0.0068
919.00,0.0093
906.00,0.0232
893.00,0.0084
880.00,0.0060
867.00,0.0054
854.00,0.0060
841.00,0.0118
828.00,0.0051
815.00,0.0048
802.00,0.0060
789.00,0.0118
776.00,0.0293
763.00,0.0781
750.00,0.1024
737.00,0.0428
724.00,0.0120
711.00,0.0264
698.00,0.2802
685.00,0.1003
672.00,0.0440
659.00,0.0256
646.00,0.0161
633.00,0.0176
620.00,0.0215
607.00,0.0167
594.00,0.0183
581.00,0.0238
568.00,0.0405
555.00,0.0587
542.00,0.0938
529.00,0.0670
516.00,0.0322
503.00,0.0209
490.00,0.0158
477.00,0.0132
464.00,0.0116
451.00,0.0119
438.00,0.0101
425.00,0.0102
412.00,0.0074
400.00,0.0089