File: FTIR/Olivia/2025_08_04_1CBN_3PVP90kDa_MortPest_powder_scan3.csv
Created as New Dataset,Sample 1053 By YargerLab Date Monday, August 04 2025
cm-1,A
4000.00,0.0050
3987.00,0.0049
3974.00,0.0050
3961.00,0.0050
3948.00,0.0049
3935.00,0.0049
3922.00,0.0049
3909.00,0.0049
3896.00,0.0049
3883.00,0.0048
3870.00,0.0048
3857.00,0.0048
3844.00,0.0048
3831.00,0.0048
3818.00,0.0048
3805.00,0.0047
3792.00,0.0048
3779.00,0.0047
3766.00,0.0048
3753.00,0.0047
3740.00,0.0047
3727.00,0.0046
3714.00,0.0046
3701.00,0.0046
3688.00,0.0046
3675.00,0.0047
3662.00,0.0049
3649.00,0.0048
3636.00,0.0051
3623.00,0.0053
3610.00,0.0056
3597.00,0.0059
3584.00,0.0064
3571.00,0.0069
3558.00,0.0076
3545.00,0.0083
3532.00,0.0091
3519.00,0.0100
3506.00,0.0107
3493.00,0.0118
3480.00,0.0133
3467.00,0.0151
3454.00,0.0173
3441.00,0.0200
3428.00,0.0233
3415.00,0.0273
3402.00,0.0297
3389.00,0.0288
3376.00,0.0263
3363.00,0.0240
3350.00,0.0225
3337.00,0.0218
3324.00,0.0218
3311.00,0.0223
3298.00,0.0234
3285.00,0.0249
3272.00,0.0262
3259.00,0.0278
3246.00,0.0290
3233.00,0.0293
3220.00,0.0290
3207.00,0.0274
3194.00,0.0251
3181.00,0.0226
3168.00,0.0202
3155.00,0.0176
3142.00,0.0155
3129.00,0.0139
3116.00,0.0127
3103.00,0.0113
3090.00,0.0111
3077.00,0.0110
3064.00,0.0107
3051.00,0.0109
3038.00,0.0112
3025.00,0.0109
3012.00,0.0102
2999.00,0.0138
2986.00,0.0201
2973.00,0.0307
2960.00,0.0406
2947.00,0.0313
2934.00,0.0511
2921.00,0.0590
2908.00,0.0373
2895.00,0.0274
2882.00,0.0239
2869.00,0.0302
2856.00,0.0459
2843.00,0.0249
2830.00,0.0147
2817.00,0.0116
2804.00,0.0104
2791.00,0.0094
2778.00,0.0087
2765.00,0.0084
2752.00,0.0084
2739.00,0.0088
2726.00,0.0092
2713.00,0.0087
2700.00,0.0085
2687.00,0.0081
2674.00,0.0080
2661.00,0.0085
2648.00,0.0087
2635.00,0.0083
2622.00,0.0078
2609.00,0.0078
2596.00,0.0079
2583.00,0.0080
2570.00,0.0077
2557.00,0.0073
2544.00,0.0071
2531.00,0.0072
2518.00,0.0068
2505.00,0.0066
2492.00,0.0063
2479.00,0.0062
2466.00,0.0061
2453.00,0.0063
2440.00,0.0061
2427.00,0.0059
2414.00,0.0058
2401.00,0.0058
2388.00,0.0056
2375.00,0.0054
2362.00,0.0054
2349.00,0.0055
2336.00,0.0058
2323.00,0.0067
2310.00,0.0059
2297.00,0.0062
2284.00,0.0067
2271.00,0.0058
2258.00,0.0054
2245.00,0.0056
2232.00,0.0057
2219.00,0.0054
2206.00,0.0053
2193.00,0.0054
2180.00,0.0051
2167.00,0.0065
2154.00,0.0029
2141.00,0.0038
2128.00,0.0039
2115.00,0.0050
2102.00,0.0045
2089.00,0.0044
2076.00,0.0051
2063.00,0.0042
2050.00,0.0048
2037.00,0.0048
2024.00,0.0042
2011.00,0.0037
1998.00,0.0039
1985.00,0.0047
1972.00,0.0037
1959.00,0.0032
1946.00,0.0040
1933.00,0.0042
1920.00,0.0045
1907.00,0.0062
1894.00,0.0056
1881.00,0.0047
1868.00,0.0049
1855.00,0.0050
1842.00,0.0051
1829.00,0.0048
1816.00,0.0048
1803.00,0.0052
1790.00,0.0053
1777.00,0.0059
1764.00,0.0059
1751.00,0.0061
1738.00,0.0061
1725.00,0.0076
1712.00,0.0093
1699.00,0.0134
1686.00,0.0252
1673.00,0.0359
1660.00,0.0437
1647.00,0.0457
1634.00,0.0433
1621.00,0.0875
1608.00,0.0626
1595.00,0.0320
1582.00,0.0630
1569.00,0.0371
1556.00,0.0173
1543.00,0.0142
1530.00,0.0128
1517.00,0.0168
1504.00,0.0231
1491.00,0.0346
1478.00,0.0187
1465.00,0.0491
1452.00,0.0429
1439.00,0.0613
1426.00,0.0753
1413.00,0.0544
1400.00,0.0767
1387.00,0.0519
1374.00,0.0417
1361.00,0.0611
1348.00,0.0457
1335.00,0.0336
1322.00,0.0364
1309.00,0.0350
1296.00,0.0594
1283.00,0.0750
1270.00,0.0503
1257.00,0.0346
1244.00,0.0465
1231.00,0.0630
1218.00,0.0473
1205.00,0.0374
1192.00,0.0647
1179.00,0.0287
1166.00,0.0273
1153.00,0.0623
1140.00,0.0254
1127.00,0.0757
1114.00,0.0340
1101.00,0.0475
1088.00,0.0219
1075.00,0.0220
1062.00,0.0394
1049.00,0.1017
1036.00,0.0495
1023.00,0.0727
1010.00,0.0313
997.00,0.0382
984.00,0.0220
971.00,0.0204
958.00,0.0184
945.00,0.0167
932.00,0.0245
919.00,0.0242
906.00,0.0171
893.00,0.0248
880.00,0.0214
867.00,0.0570
854.00,0.0426
841.00,0.0395
828.00,0.0408
815.00,0.0766
802.00,0.0200
789.00,0.0184
776.00,0.0248
763.00,0.0238
750.00,0.0264
737.00,0.0458
724.00,0.0390
711.00,0.0386
698.00,0.0426
685.00,0.0445
672.00,0.0547
659.00,0.0560
646.00,0.0519
633.00,0.0490
620.00,0.0566
607.00,0.0561
594.00,0.0674
581.00,0.0676
568.00,0.0645
555.00,0.0681
542.00,0.0713
529.00,0.0708
516.00,0.0553
503.00,0.0562
490.00,0.0556
477.00,0.0521
464.00,0.0509
451.00,0.0492
438.00,0.0506
425.00,0.0483
412.00,0.0515
400.00,0.0481