File: FTIR/Olivia/2025_08_04_1CBN_3PVP90kDa_MortPest_powder_scan1.csv
Created as New Dataset,Sample 1051 By YargerLab Date Monday, August 04 2025
cm-1,A
4000.00,0.0024
3987.00,0.0024
3974.00,0.0024
3961.00,0.0023
3948.00,0.0023
3935.00,0.0023
3922.00,0.0024
3909.00,0.0023
3896.00,0.0023
3883.00,0.0023
3870.00,0.0023
3857.00,0.0023
3844.00,0.0023
3831.00,0.0023
3818.00,0.0022
3805.00,0.0023
3792.00,0.0023
3779.00,0.0023
3766.00,0.0023
3753.00,0.0022
3740.00,0.0022
3727.00,0.0022
3714.00,0.0022
3701.00,0.0021
3688.00,0.0022
3675.00,0.0022
3662.00,0.0024
3649.00,0.0023
3636.00,0.0025
3623.00,0.0027
3610.00,0.0029
3597.00,0.0031
3584.00,0.0034
3571.00,0.0038
3558.00,0.0043
3545.00,0.0047
3532.00,0.0052
3519.00,0.0057
3506.00,0.0061
3493.00,0.0068
3480.00,0.0075
3467.00,0.0085
3454.00,0.0097
3441.00,0.0110
3428.00,0.0128
3415.00,0.0148
3402.00,0.0161
3389.00,0.0157
3376.00,0.0144
3363.00,0.0132
3350.00,0.0123
3337.00,0.0120
3324.00,0.0120
3311.00,0.0122
3298.00,0.0128
3285.00,0.0135
3272.00,0.0142
3259.00,0.0150
3246.00,0.0156
3233.00,0.0158
3220.00,0.0155
3207.00,0.0147
3194.00,0.0135
3181.00,0.0122
3168.00,0.0110
3155.00,0.0096
3142.00,0.0084
3129.00,0.0075
3116.00,0.0068
3103.00,0.0060
3090.00,0.0059
3077.00,0.0058
3064.00,0.0056
3051.00,0.0057
3038.00,0.0058
3025.00,0.0057
3012.00,0.0053
2999.00,0.0070
2986.00,0.0103
2973.00,0.0158
2960.00,0.0211
2947.00,0.0162
2934.00,0.0259
2921.00,0.0309
2908.00,0.0199
2895.00,0.0148
2882.00,0.0128
2869.00,0.0159
2856.00,0.0241
2843.00,0.0138
2830.00,0.0081
2817.00,0.0063
2804.00,0.0057
2791.00,0.0050
2778.00,0.0047
2765.00,0.0045
2752.00,0.0044
2739.00,0.0047
2726.00,0.0049
2713.00,0.0046
2700.00,0.0045
2687.00,0.0043
2674.00,0.0042
2661.00,0.0046
2648.00,0.0047
2635.00,0.0045
2622.00,0.0042
2609.00,0.0042
2596.00,0.0043
2583.00,0.0042
2570.00,0.0041
2557.00,0.0039
2544.00,0.0038
2531.00,0.0038
2518.00,0.0035
2505.00,0.0034
2492.00,0.0033
2479.00,0.0032
2466.00,0.0031
2453.00,0.0033
2440.00,0.0032
2427.00,0.0030
2414.00,0.0029
2401.00,0.0029
2388.00,0.0027
2375.00,0.0027
2362.00,0.0027
2349.00,0.0028
2336.00,0.0030
2323.00,0.0039
2310.00,0.0031
2297.00,0.0034
2284.00,0.0039
2271.00,0.0031
2258.00,0.0028
2245.00,0.0029
2232.00,0.0029
2219.00,0.0027
2206.00,0.0029
2193.00,0.0027
2180.00,0.0024
2167.00,0.0037
2154.00,0.0007
2141.00,0.0015
2128.00,0.0014
2115.00,0.0025
2102.00,0.0023
2089.00,0.0022
2076.00,0.0027
2063.00,0.0020
2050.00,0.0028
2037.00,0.0026
2024.00,0.0016
2011.00,0.0016
1998.00,0.0015
1985.00,0.0025
1972.00,0.0014
1959.00,0.0012
1946.00,0.0014
1933.00,0.0017
1920.00,0.0020
1907.00,0.0030
1894.00,0.0027
1881.00,0.0023
1868.00,0.0023
1855.00,0.0024
1842.00,0.0025
1829.00,0.0023
1816.00,0.0022
1803.00,0.0026
1790.00,0.0027
1777.00,0.0029
1764.00,0.0030
1751.00,0.0031
1738.00,0.0031
1725.00,0.0039
1712.00,0.0049
1699.00,0.0069
1686.00,0.0135
1673.00,0.0201
1660.00,0.0254
1647.00,0.0271
1634.00,0.0255
1621.00,0.0470
1608.00,0.0346
1595.00,0.0179
1582.00,0.0337
1569.00,0.0206
1556.00,0.0099
1543.00,0.0079
1530.00,0.0072
1517.00,0.0092
1504.00,0.0128
1491.00,0.0197
1478.00,0.0105
1465.00,0.0276
1452.00,0.0237
1439.00,0.0344
1426.00,0.0413
1413.00,0.0291
1400.00,0.0406
1387.00,0.0281
1374.00,0.0231
1361.00,0.0326
1348.00,0.0253
1335.00,0.0190
1322.00,0.0209
1309.00,0.0195
1296.00,0.0340
1283.00,0.0418
1270.00,0.0283
1257.00,0.0189
1244.00,0.0252
1231.00,0.0346
1218.00,0.0261
1205.00,0.0206
1192.00,0.0354
1179.00,0.0162
1166.00,0.0151
1153.00,0.0332
1140.00,0.0141
1127.00,0.0405
1114.00,0.0192
1101.00,0.0262
1088.00,0.0126
1075.00,0.0124
1062.00,0.0212
1049.00,0.0530
1036.00,0.0277
1023.00,0.0405
1010.00,0.0180
997.00,0.0221
984.00,0.0130
971.00,0.0120
958.00,0.0109
945.00,0.0099
932.00,0.0143
919.00,0.0144
906.00,0.0101
893.00,0.0145
880.00,0.0125
867.00,0.0326
854.00,0.0245
841.00,0.0232
828.00,0.0242
815.00,0.0441
802.00,0.0130
789.00,0.0118
776.00,0.0156
763.00,0.0152
750.00,0.0166
737.00,0.0277
724.00,0.0246
711.00,0.0246
698.00,0.0267
685.00,0.0280
672.00,0.0336
659.00,0.0346
646.00,0.0324
633.00,0.0308
620.00,0.0353
607.00,0.0348
594.00,0.0416
581.00,0.0415
568.00,0.0400
555.00,0.0425
542.00,0.0445
529.00,0.0438
516.00,0.0353
503.00,0.0356
490.00,0.0354
477.00,0.0330
464.00,0.0332
451.00,0.0329
438.00,0.0325
425.00,0.0308
412.00,0.0340
400.00,0.0319