File: FTIR/Olivia/2025_07_26_Polystyrene_Std_scan2.csv
Created as New Dataset,Sample 918 By YargerLab Date Saturday, July 26 2025
cm-1,A
4000.00,0.0009
3987.00,0.0008
3974.00,0.0008
3961.00,0.0009
3948.00,0.0008
3935.00,0.0008
3922.00,0.0008
3909.00,0.0008
3896.00,0.0007
3883.00,0.0007
3870.00,0.0008
3857.00,0.0008
3844.00,0.0008
3831.00,0.0008
3818.00,0.0009
3805.00,0.0009
3792.00,0.0009
3779.00,0.0009
3766.00,0.0009
3753.00,0.0008
3740.00,0.0007
3727.00,0.0008
3714.00,0.0007
3701.00,0.0007
3688.00,0.0007
3675.00,0.0006
3662.00,0.0007
3649.00,0.0007
3636.00,0.0007
3623.00,0.0008
3610.00,0.0007
3597.00,0.0008
3584.00,0.0008
3571.00,0.0008
3558.00,0.0009
3545.00,0.0009
3532.00,0.0010
3519.00,0.0010
3506.00,0.0011
3493.00,0.0012
3480.00,0.0012
3467.00,0.0013
3454.00,0.0013
3441.00,0.0013
3428.00,0.0013
3415.00,0.0013
3402.00,0.0013
3389.00,0.0012
3376.00,0.0012
3363.00,0.0012
3350.00,0.0012
3337.00,0.0013
3324.00,0.0012
3311.00,0.0012
3298.00,0.0012
3285.00,0.0012
3272.00,0.0012
3259.00,0.0012
3246.00,0.0011
3233.00,0.0011
3220.00,0.0011
3207.00,0.0012
3194.00,0.0011
3181.00,0.0011
3168.00,0.0011
3155.00,0.0011
3142.00,0.0010
3129.00,0.0011
3116.00,0.0015
3103.00,0.0033
3090.00,0.0047
3077.00,0.0067
3064.00,0.0100
3051.00,0.0072
3038.00,0.0081
3025.00,0.0222
3012.00,0.0061
2999.00,0.0055
2986.00,0.0027
2973.00,0.0031
2960.00,0.0051
2947.00,0.0096
2934.00,0.0196
2921.00,0.0271
2908.00,0.0207
2895.00,0.0122
2882.00,0.0085
2869.00,0.0068
2856.00,0.0103
2843.00,0.0097
2830.00,0.0033
2817.00,0.0024
2804.00,0.0021
2791.00,0.0018
2778.00,0.0017
2765.00,0.0015
2752.00,0.0014
2739.00,0.0014
2726.00,0.0015
2713.00,0.0015
2700.00,0.0014
2687.00,0.0014
2674.00,0.0014
2661.00,0.0017
2648.00,0.0019
2635.00,0.0019
2622.00,0.0018
2609.00,0.0017
2596.00,0.0016
2583.00,0.0015
2570.00,0.0013
2557.00,0.0012
2544.00,0.0011
2531.00,0.0011
2518.00,0.0011
2505.00,0.0010
2492.00,0.0010
2479.00,0.0009
2466.00,0.0008
2453.00,0.0010
2440.00,0.0007
2427.00,0.0007
2414.00,0.0006
2401.00,0.0004
2388.00,0.0004
2375.00,0.0004
2362.00,0.0005
2349.00,0.0007
2336.00,0.0011
2323.00,0.0022
2310.00,0.0015
2297.00,0.0015
2284.00,0.0016
2271.00,0.0011
2258.00,0.0012
2245.00,0.0008
2232.00,0.0008
2219.00,0.0007
2206.00,0.0006
2193.00,0.0009
2180.00,-0.0001
2167.00,0.0014
2154.00,-0.0018
2141.00,-0.0014
2128.00,-0.0009
2115.00,0.0004
2102.00,0.0002
2089.00,0.0003
2076.00,0.0003
2063.00,0.0000
2050.00,0.0007
2037.00,0.0002
2024.00,-0.0002
2011.00,0.0001
1998.00,-0.0002
1985.00,0.0008
1972.00,-0.0000
1959.00,0.0007
1946.00,0.0024
1933.00,0.0012
1920.00,0.0002
1907.00,0.0003
1894.00,0.0009
1881.00,0.0020
1868.00,0.0024
1855.00,0.0009
1842.00,0.0005
1829.00,0.0008
1816.00,0.0015
1803.00,0.0029
1790.00,0.0017
1777.00,0.0016
1764.00,0.0019
1751.00,0.0034
1738.00,0.0043
1725.00,0.0035
1712.00,0.0027
1699.00,0.0023
1686.00,0.0026
1673.00,0.0028
1660.00,0.0026
1647.00,0.0020
1634.00,0.0019
1621.00,0.0022
1608.00,0.0079
1595.00,0.0102
1582.00,0.0080
1569.00,0.0021
1556.00,0.0020
1543.00,0.0028
1530.00,0.0018
1517.00,0.0017
1504.00,0.0040
1491.00,0.0438
1478.00,0.0054
1465.00,0.0058
1452.00,0.0495
1439.00,0.0183
1426.00,0.0056
1413.00,0.0040
1400.00,0.0037
1387.00,0.0065
1374.00,0.0105
1361.00,0.0098
1348.00,0.0087
1335.00,0.0078
1322.00,0.0083
1309.00,0.0084
1296.00,0.0068
1283.00,0.0062
1270.00,0.0049
1257.00,0.0045
1244.00,0.0047
1231.00,0.0045
1218.00,0.0046
1205.00,0.0060
1192.00,0.0074
1179.00,0.0096
1166.00,0.0059
1153.00,0.0098
1140.00,0.0042
1127.00,0.0040
1114.00,0.0054
1101.00,0.0055
1088.00,0.0067
1075.00,0.0112
1062.00,0.0109
1049.00,0.0071
1036.00,0.0103
1023.00,0.0173
1010.00,0.0092
997.00,0.0072
984.00,0.0081
971.00,0.0078
958.00,0.0075
945.00,0.0074
932.00,0.0052
919.00,0.0063
906.00,0.0154
893.00,0.0054
880.00,0.0037
867.00,0.0031
854.00,0.0036
841.00,0.0075
828.00,0.0030
815.00,0.0031
802.00,0.0035
789.00,0.0073
776.00,0.0197
763.00,0.0510
750.00,0.0646
737.00,0.0280
724.00,0.0071
711.00,0.0180
698.00,0.1495
685.00,0.0551
672.00,0.0257
659.00,0.0155
646.00,0.0102
633.00,0.0112
620.00,0.0134
607.00,0.0104
594.00,0.0118
581.00,0.0149
568.00,0.0254
555.00,0.0362
542.00,0.0555
529.00,0.0388
516.00,0.0194
503.00,0.0126
490.00,0.0095
477.00,0.0085
464.00,0.0085
451.00,0.0080
438.00,0.0074
425.00,0.0071
412.00,0.0077
400.00,0.0053