File: FTIR/Olivia/2025_08_15_1CBG_3PVP29_silicone_scan3.csv
Created as New Dataset,Sample 120 By YargerLab Date Friday, August 15 2025
cm-1,A
4000.00,0.0015
3987.00,0.0015
3974.00,0.0015
3961.00,0.0015
3948.00,0.0014
3935.00,0.0014
3922.00,0.0013
3909.00,0.0014
3896.00,0.0013
3883.00,0.0013
3870.00,0.0013
3857.00,0.0014
3844.00,0.0014
3831.00,0.0013
3818.00,0.0014
3805.00,0.0014
3792.00,0.0014
3779.00,0.0014
3766.00,0.0013
3753.00,0.0014
3740.00,0.0013
3727.00,0.0012
3714.00,0.0014
3701.00,0.0014
3688.00,0.0018
3675.00,0.0024
3662.00,0.0027
3649.00,0.0034
3636.00,0.0044
3623.00,0.0055
3610.00,0.0070
3597.00,0.0086
3584.00,0.0106
3571.00,0.0127
3558.00,0.0149
3545.00,0.0169
3532.00,0.0187
3519.00,0.0206
3506.00,0.0225
3493.00,0.0244
3480.00,0.0262
3467.00,0.0279
3454.00,0.0292
3441.00,0.0305
3428.00,0.0317
3415.00,0.0328
3402.00,0.0338
3389.00,0.0351
3376.00,0.0362
3363.00,0.0371
3350.00,0.0377
3337.00,0.0384
3324.00,0.0391
3311.00,0.0395
3298.00,0.0401
3285.00,0.0407
3272.00,0.0399
3259.00,0.0400
3246.00,0.0392
3233.00,0.0384
3220.00,0.0375
3207.00,0.0366
3194.00,0.0355
3181.00,0.0340
3168.00,0.0323
3155.00,0.0303
3142.00,0.0286
3129.00,0.0272
3116.00,0.0257
3103.00,0.0237
3090.00,0.0218
3077.00,0.0203
3064.00,0.0191
3051.00,0.0183
3038.00,0.0175
3025.00,0.0175
3012.00,0.0185
2999.00,0.0245
2986.00,0.0359
2973.00,0.0450
2960.00,0.0567
2947.00,0.0572
2934.00,0.0629
2921.00,0.0693
2908.00,0.0589
2895.00,0.0513
2882.00,0.0478
2869.00,0.0469
2856.00,0.0470
2843.00,0.0330
2830.00,0.0242
2817.00,0.0184
2804.00,0.0138
2791.00,0.0115
2778.00,0.0103
2765.00,0.0095
2752.00,0.0092
2739.00,0.0093
2726.00,0.0094
2713.00,0.0090
2700.00,0.0086
2687.00,0.0083
2674.00,0.0079
2661.00,0.0078
2648.00,0.0074
2635.00,0.0069
2622.00,0.0064
2609.00,0.0061
2596.00,0.0059
2583.00,0.0058
2570.00,0.0055
2557.00,0.0052
2544.00,0.0049
2531.00,0.0049
2518.00,0.0046
2505.00,0.0043
2492.00,0.0041
2479.00,0.0039
2466.00,0.0036
2453.00,0.0037
2440.00,0.0034
2427.00,0.0033
2414.00,0.0033
2401.00,0.0035
2388.00,0.0031
2375.00,0.0029
2362.00,0.0029
2349.00,0.0030
2336.00,0.0033
2323.00,0.0043
2310.00,0.0036
2297.00,0.0036
2284.00,0.0038
2271.00,0.0034
2258.00,0.0032
2245.00,0.0032
2232.00,0.0034
2219.00,0.0033
2206.00,0.0034
2193.00,0.0034
2180.00,0.0030
2167.00,0.0038
2154.00,0.0007
2141.00,0.0016
2128.00,0.0021
2115.00,0.0030
2102.00,0.0024
2089.00,0.0023
2076.00,0.0024
2063.00,0.0021
2050.00,0.0027
2037.00,0.0021
2024.00,0.0017
2011.00,0.0015
1998.00,0.0014
1985.00,0.0021
1972.00,0.0011
1959.00,0.0009
1946.00,0.0015
1933.00,0.0017
1920.00,0.0021
1907.00,0.0024
1894.00,0.0021
1881.00,0.0022
1868.00,0.0026
1855.00,0.0025
1842.00,0.0027
1829.00,0.0030
1816.00,0.0028
1803.00,0.0034
1790.00,0.0036
1777.00,0.0043
1764.00,0.0051
1751.00,0.0065
1738.00,0.0081
1725.00,0.0124
1712.00,0.0216
1699.00,0.0569
1686.00,0.1511
1673.00,0.2365
1660.00,0.3180
1647.00,0.3081
1634.00,0.1603
1621.00,0.0998
1608.00,0.0696
1595.00,0.0747
1582.00,0.0438
1569.00,0.0281
1556.00,0.0229
1543.00,0.0225
1530.00,0.0217
1517.00,0.0230
1504.00,0.0342
1491.00,0.0593
1478.00,0.0349
1465.00,0.1024
1452.00,0.0980
1439.00,0.1628
1426.00,0.2163
1413.00,0.1183
1400.00,0.0679
1387.00,0.0725
1374.00,0.0896
1361.00,0.0614
1348.00,0.0513
1335.00,0.0504
1322.00,0.0763
1309.00,0.0705
1296.00,0.1330
1283.00,0.2098
1270.00,0.1837
1257.00,0.1007
1244.00,0.0682
1231.00,0.0918
1218.00,0.0895
1205.00,0.0636
1192.00,0.0514
1179.00,0.0528
1166.00,0.0758
1153.00,0.0524
1140.00,0.0343
1127.00,0.0305
1114.00,0.0371
1101.00,0.0422
1088.00,0.0480
1075.00,0.0490
1062.00,0.0452
1049.00,0.1011
1036.00,0.0960
1023.00,0.0766
1010.00,0.0479
997.00,0.0421
984.00,0.0358
971.00,0.0275
958.00,0.0215
945.00,0.0193
932.00,0.0287
919.00,0.0258
906.00,0.0302
893.00,0.0319
880.00,0.0300
867.00,0.0351
854.00,0.0549
841.00,0.0716
828.00,0.0712
815.00,0.0503
802.00,0.0459
789.00,0.0475
776.00,0.0501
763.00,0.0548
750.00,0.0710
737.00,0.0850
724.00,0.0706
711.00,0.0642
698.00,0.0675
685.00,0.0769
672.00,0.0887
659.00,0.1094
646.00,0.1267
633.00,0.1025
620.00,0.0909
607.00,0.0925
594.00,0.1006
581.00,0.1222
568.00,0.1260
555.00,0.1049
542.00,0.0944
529.00,0.0915
516.00,0.0877
503.00,0.0847
490.00,0.0863
477.00,0.0883
464.00,0.0848
451.00,0.0843
438.00,0.0783
425.00,0.0745
412.00,0.0728
400.00,0.0794