File: FTIR/Olivia/2025_07_31_Polystyrene_Std_scan3.csv
Created as New Dataset,Sample 1003 By YargerLab Date Thursday, July 31 2025
cm-1,A
4000.00,0.0001
3987.00,-0.0000
3974.00,-0.0000
3961.00,-0.0000
3948.00,0.0000
3935.00,-0.0001
3922.00,-0.0001
3909.00,0.0000
3896.00,-0.0001
3883.00,-0.0002
3870.00,-0.0001
3857.00,-0.0001
3844.00,-0.0000
3831.00,-0.0001
3818.00,-0.0001
3805.00,0.0001
3792.00,0.0001
3779.00,0.0000
3766.00,0.0000
3753.00,-0.0000
3740.00,-0.0002
3727.00,-0.0001
3714.00,-0.0001
3701.00,-0.0000
3688.00,-0.0001
3675.00,-0.0001
3662.00,-0.0001
3649.00,-0.0002
3636.00,-0.0001
3623.00,-0.0001
3610.00,-0.0002
3597.00,-0.0001
3584.00,-0.0001
3571.00,-0.0001
3558.00,0.0001
3545.00,-0.0000
3532.00,0.0001
3519.00,0.0001
3506.00,0.0001
3493.00,0.0002
3480.00,0.0002
3467.00,0.0003
3454.00,0.0002
3441.00,0.0003
3428.00,0.0002
3415.00,0.0002
3402.00,0.0002
3389.00,0.0002
3376.00,0.0002
3363.00,0.0002
3350.00,0.0001
3337.00,0.0001
3324.00,0.0001
3311.00,0.0002
3298.00,0.0002
3285.00,0.0002
3272.00,0.0002
3259.00,0.0001
3246.00,0.0000
3233.00,0.0001
3220.00,0.0001
3207.00,0.0001
3194.00,0.0001
3181.00,0.0000
3168.00,0.0001
3155.00,0.0001
3142.00,0.0001
3129.00,0.0001
3116.00,0.0003
3103.00,0.0011
3090.00,0.0016
3077.00,0.0028
3064.00,0.0039
3051.00,0.0029
3038.00,0.0030
3025.00,0.0096
3012.00,0.0023
2999.00,0.0019
2986.00,0.0003
2973.00,0.0003
2960.00,0.0010
2947.00,0.0031
2934.00,0.0071
2921.00,0.0104
2908.00,0.0081
2895.00,0.0044
2882.00,0.0028
2869.00,0.0021
2856.00,0.0034
2843.00,0.0037
2830.00,0.0009
2817.00,0.0006
2804.00,0.0004
2791.00,0.0004
2778.00,0.0003
2765.00,0.0003
2752.00,0.0002
2739.00,0.0002
2726.00,0.0003
2713.00,0.0002
2700.00,0.0003
2687.00,0.0003
2674.00,0.0002
2661.00,0.0005
2648.00,0.0007
2635.00,0.0007
2622.00,0.0006
2609.00,0.0006
2596.00,0.0005
2583.00,0.0004
2570.00,0.0002
2557.00,0.0002
2544.00,0.0002
2531.00,0.0001
2518.00,0.0000
2505.00,0.0001
2492.00,0.0001
2479.00,-0.0001
2466.00,-0.0000
2453.00,0.0002
2440.00,-0.0000
2427.00,-0.0001
2414.00,-0.0001
2401.00,-0.0003
2388.00,-0.0003
2375.00,-0.0003
2362.00,-0.0001
2349.00,0.0001
2336.00,0.0003
2323.00,0.0013
2310.00,0.0006
2297.00,0.0006
2284.00,0.0008
2271.00,0.0003
2258.00,0.0005
2245.00,0.0001
2232.00,0.0001
2219.00,0.0001
2206.00,-0.0000
2193.00,0.0002
2180.00,-0.0000
2167.00,0.0008
2154.00,-0.0021
2141.00,-0.0015
2128.00,-0.0014
2115.00,-0.0002
2102.00,-0.0002
2089.00,-0.0002
2076.00,0.0000
2063.00,-0.0003
2050.00,0.0006
2037.00,-0.0001
2024.00,-0.0006
2011.00,-0.0007
1998.00,-0.0004
1985.00,0.0005
1972.00,-0.0009
1959.00,-0.0005
1946.00,0.0006
1933.00,0.0003
1920.00,-0.0004
1907.00,-0.0003
1894.00,-0.0001
1881.00,0.0005
1868.00,0.0007
1855.00,-0.0000
1842.00,-0.0002
1829.00,0.0001
1816.00,0.0004
1803.00,0.0012
1790.00,0.0006
1777.00,0.0004
1764.00,0.0006
1751.00,0.0013
1738.00,0.0015
1725.00,0.0011
1712.00,0.0008
1699.00,0.0009
1686.00,0.0014
1673.00,0.0016
1660.00,0.0015
1647.00,0.0011
1634.00,0.0008
1621.00,0.0010
1608.00,0.0038
1595.00,0.0054
1582.00,0.0041
1569.00,0.0009
1556.00,0.0008
1543.00,0.0015
1530.00,0.0010
1517.00,0.0009
1504.00,0.0020
1491.00,0.0260
1478.00,0.0029
1465.00,0.0029
1452.00,0.0273
1439.00,0.0103
1426.00,0.0028
1413.00,0.0019
1400.00,0.0017
1387.00,0.0033
1374.00,0.0055
1361.00,0.0053
1348.00,0.0047
1335.00,0.0043
1322.00,0.0047
1309.00,0.0048
1296.00,0.0040
1283.00,0.0036
1270.00,0.0028
1257.00,0.0023
1244.00,0.0024
1231.00,0.0024
1218.00,0.0026
1205.00,0.0035
1192.00,0.0044
1179.00,0.0058
1166.00,0.0033
1153.00,0.0060
1140.00,0.0023
1127.00,0.0023
1114.00,0.0034
1101.00,0.0036
1088.00,0.0043
1075.00,0.0074
1062.00,0.0073
1049.00,0.0048
1036.00,0.0069
1023.00,0.0120
1010.00,0.0063
997.00,0.0050
984.00,0.0058
971.00,0.0056
958.00,0.0054
945.00,0.0051
932.00,0.0038
919.00,0.0046
906.00,0.0113
893.00,0.0040
880.00,0.0028
867.00,0.0024
854.00,0.0028
841.00,0.0058
828.00,0.0025
815.00,0.0025
802.00,0.0029
789.00,0.0057
776.00,0.0149
763.00,0.0389
750.00,0.0502
737.00,0.0216
724.00,0.0058
711.00,0.0136
698.00,0.1378
685.00,0.0532
672.00,0.0235
659.00,0.0140
646.00,0.0084
633.00,0.0093
620.00,0.0113
607.00,0.0085
594.00,0.0098
581.00,0.0129
568.00,0.0218
555.00,0.0316
542.00,0.0503
529.00,0.0376
516.00,0.0187
503.00,0.0124
490.00,0.0096
477.00,0.0084
464.00,0.0076
451.00,0.0071
438.00,0.0062
425.00,0.0050
412.00,0.0060
400.00,0.0104