File: FTIR/Olivia/2025_06_18_CBD_SorbicAcid_Cocrystal_Slurry_Vial_scan2.csv
Created as New Dataset,Sample 713 By YargerLab Date Wednesday, June 18 2025
cm-1,A
4000.00,0.0011
3987.00,0.0011
3974.00,0.0011
3961.00,0.0011
3948.00,0.0010
3935.00,0.0010
3922.00,0.0010
3909.00,0.0010
3896.00,0.0010
3883.00,0.0010
3870.00,0.0010
3857.00,0.0010
3844.00,0.0009
3831.00,0.0010
3818.00,0.0010
3805.00,0.0009
3792.00,0.0010
3779.00,0.0010
3766.00,0.0010
3753.00,0.0009
3740.00,0.0008
3727.00,0.0008
3714.00,0.0008
3701.00,0.0008
3688.00,0.0007
3675.00,0.0006
3662.00,0.0006
3649.00,0.0005
3636.00,0.0005
3623.00,0.0006
3610.00,0.0007
3597.00,0.0008
3584.00,0.0009
3571.00,0.0009
3558.00,0.0011
3545.00,0.0013
3532.00,0.0016
3519.00,0.0020
3506.00,0.0027
3493.00,0.0038
3480.00,0.0057
3467.00,0.0092
3454.00,0.0216
3441.00,0.0221
3428.00,0.0111
3415.00,0.0071
3402.00,0.0059
3389.00,0.0055
3376.00,0.0054
3363.00,0.0055
3350.00,0.0057
3337.00,0.0060
3324.00,0.0064
3311.00,0.0068
3298.00,0.0074
3285.00,0.0081
3272.00,0.0088
3259.00,0.0096
3246.00,0.0102
3233.00,0.0110
3220.00,0.0118
3207.00,0.0125
3194.00,0.0131
3181.00,0.0137
3168.00,0.0140
3155.00,0.0142
3142.00,0.0149
3129.00,0.0155
3116.00,0.0160
3103.00,0.0167
3090.00,0.0169
3077.00,0.0176
3064.00,0.0177
3051.00,0.0156
3038.00,0.0150
3025.00,0.0143
3012.00,0.0136
2999.00,0.0135
2986.00,0.0152
2973.00,0.0177
2960.00,0.0228
2947.00,0.0242
2934.00,0.0307
2921.00,0.0384
2908.00,0.0269
2895.00,0.0204
2882.00,0.0191
2869.00,0.0219
2856.00,0.0240
2843.00,0.0175
2830.00,0.0156
2817.00,0.0112
2804.00,0.0101
2791.00,0.0097
2778.00,0.0098
2765.00,0.0103
2752.00,0.0105
2739.00,0.0106
2726.00,0.0110
2713.00,0.0110
2700.00,0.0111
2687.00,0.0111
2674.00,0.0110
2661.00,0.0115
2648.00,0.0113
2635.00,0.0110
2622.00,0.0108
2609.00,0.0105
2596.00,0.0100
2583.00,0.0096
2570.00,0.0094
2557.00,0.0096
2544.00,0.0094
2531.00,0.0088
2518.00,0.0085
2505.00,0.0080
2492.00,0.0079
2479.00,0.0077
2466.00,0.0076
2453.00,0.0079
2440.00,0.0077
2427.00,0.0076
2414.00,0.0072
2401.00,0.0065
2388.00,0.0059
2375.00,0.0051
2362.00,0.0047
2349.00,0.0043
2336.00,0.0042
2323.00,0.0049
2310.00,0.0037
2297.00,0.0038
2284.00,0.0041
2271.00,0.0034
2258.00,0.0032
2245.00,0.0027
2232.00,0.0027
2219.00,0.0024
2206.00,0.0023
2193.00,0.0028
2180.00,0.0020
2167.00,0.0030
2154.00,-0.0008
2141.00,-0.0002
2128.00,0.0001
2115.00,0.0015
2102.00,0.0012
2089.00,0.0009
2076.00,0.0013
2063.00,0.0010
2050.00,0.0020
2037.00,0.0013
2024.00,0.0007
2011.00,0.0007
1998.00,0.0004
1985.00,0.0014
1972.00,0.0001
1959.00,-0.0003
1946.00,0.0001
1933.00,0.0003
1920.00,0.0007
1907.00,0.0005
1894.00,0.0005
1881.00,0.0007
1868.00,0.0009
1855.00,0.0008
1842.00,0.0009
1829.00,0.0009
1816.00,0.0006
1803.00,0.0011
1790.00,0.0016
1777.00,0.0018
1764.00,0.0017
1751.00,0.0018
1738.00,0.0020
1725.00,0.0023
1712.00,0.0027
1699.00,0.0031
1686.00,0.0035
1673.00,0.0052
1660.00,0.0096
1647.00,0.0243
1634.00,0.0556
1621.00,0.0349
1608.00,0.0214
1595.00,0.0271
1582.00,0.0576
1569.00,0.0585
1556.00,0.0365
1543.00,0.0230
1530.00,0.0199
1517.00,0.0167
1504.00,0.0109
1491.00,0.0094
1478.00,0.0120
1465.00,0.0216
1452.00,0.0463
1439.00,0.0577
1426.00,0.0328
1413.00,0.0279
1400.00,0.0307
1387.00,0.0257
1374.00,0.0331
1361.00,0.0295
1348.00,0.0386
1335.00,0.0356
1322.00,0.0430
1309.00,0.0315
1296.00,0.0287
1283.00,0.0425
1270.00,0.0249
1257.00,0.0194
1244.00,0.0367
1231.00,0.0226
1218.00,0.0224
1205.00,0.0372
1192.00,0.0155
1179.00,0.0186
1166.00,0.0247
1153.00,0.0187
1140.00,0.0109
1127.00,0.0069
1114.00,0.0066
1101.00,0.0126
1088.00,0.0086
1075.00,0.0080
1062.00,0.0135
1049.00,0.0250
1036.00,0.0398
1023.00,0.0239
1010.00,0.0134
997.00,0.0157
984.00,0.0118
971.00,0.0093
958.00,0.0153
945.00,0.0130
932.00,0.0114
919.00,0.0176
906.00,0.0173
893.00,0.0271
880.00,0.0303
867.00,0.0254
854.00,0.0384
841.00,0.0343
828.00,0.0254
815.00,0.0150
802.00,0.0261
789.00,0.0208
776.00,0.0177
763.00,0.0179
750.00,0.0140
737.00,0.0180
724.00,0.0155
711.00,0.0149
698.00,0.0146
685.00,0.0184
672.00,0.0208
659.00,0.0141
646.00,0.0139
633.00,0.0155
620.00,0.0135
607.00,0.0148
594.00,0.0143
581.00,0.0209
568.00,0.0109
555.00,0.0204
542.00,0.0173
529.00,0.0186
516.00,0.0135
503.00,0.0205
490.00,0.0410
477.00,0.0411
464.00,0.0391
451.00,0.0282
438.00,0.0240
425.00,0.0173
412.00,0.0146
400.00,0.0163