File: FTIR/Olivia/2025_08_05_silicon_dish_scan3.csv
Created as New Dataset,Sample 1074 By YargerLab Date Tuesday, August 05 2025
cm-1,A
4000.00,0.0007
3987.00,0.0007
3974.00,0.0006
3961.00,0.0006
3948.00,0.0006
3935.00,0.0006
3922.00,0.0006
3909.00,0.0006
3896.00,0.0006
3883.00,0.0006
3870.00,0.0006
3857.00,0.0007
3844.00,0.0007
3831.00,0.0007
3818.00,0.0008
3805.00,0.0009
3792.00,0.0009
3779.00,0.0011
3766.00,0.0013
3753.00,0.0012
3740.00,0.0011
3727.00,0.0013
3714.00,0.0017
3701.00,0.0024
3688.00,0.0030
3675.00,0.0039
3662.00,0.0050
3649.00,0.0058
3636.00,0.0061
3623.00,0.0062
3610.00,0.0063
3597.00,0.0067
3584.00,0.0070
3571.00,0.0072
3558.00,0.0077
3545.00,0.0083
3532.00,0.0089
3519.00,0.0094
3506.00,0.0100
3493.00,0.0105
3480.00,0.0110
3467.00,0.0115
3454.00,0.0118
3441.00,0.0121
3428.00,0.0123
3415.00,0.0125
3402.00,0.0126
3389.00,0.0127
3376.00,0.0126
3363.00,0.0126
3350.00,0.0125
3337.00,0.0124
3324.00,0.0122
3311.00,0.0121
3298.00,0.0120
3285.00,0.0119
3272.00,0.0117
3259.00,0.0116
3246.00,0.0113
3233.00,0.0111
3220.00,0.0109
3207.00,0.0106
3194.00,0.0103
3181.00,0.0100
3168.00,0.0097
3155.00,0.0095
3142.00,0.0092
3129.00,0.0090
3116.00,0.0090
3103.00,0.0087
3090.00,0.0085
3077.00,0.0082
3064.00,0.0080
3051.00,0.0077
3038.00,0.0075
3025.00,0.0073
3012.00,0.0073
2999.00,0.0079
2986.00,0.0112
2973.00,0.0323
2960.00,0.0625
2947.00,0.0171
2934.00,0.0088
2921.00,0.0067
2908.00,0.0115
2895.00,0.0082
2882.00,0.0060
2869.00,0.0050
2856.00,0.0038
2843.00,0.0041
2830.00,0.0042
2817.00,0.0042
2804.00,0.0041
2791.00,0.0038
2778.00,0.0030
2765.00,0.0026
2752.00,0.0024
2739.00,0.0022
2726.00,0.0021
2713.00,0.0021
2700.00,0.0020
2687.00,0.0020
2674.00,0.0020
2661.00,0.0021
2648.00,0.0018
2635.00,0.0015
2622.00,0.0014
2609.00,0.0013
2596.00,0.0012
2583.00,0.0012
2570.00,0.0011
2557.00,0.0011
2544.00,0.0011
2531.00,0.0012
2518.00,0.0014
2505.00,0.0015
2492.00,0.0014
2479.00,0.0011
2466.00,0.0010
2453.00,0.0010
2440.00,0.0010
2427.00,0.0011
2414.00,0.0010
2401.00,0.0009
2388.00,0.0009
2375.00,0.0009
2362.00,0.0010
2349.00,0.0011
2336.00,0.0011
2323.00,0.0013
2310.00,0.0011
2297.00,0.0011
2284.00,0.0010
2271.00,0.0007
2258.00,0.0006
2245.00,0.0005
2232.00,0.0002
2219.00,0.0000
2206.00,-0.0003
2193.00,-0.0008
2180.00,-0.0011
2167.00,-0.0016
2154.00,-0.0023
2141.00,-0.0017
2128.00,-0.0008
2115.00,-0.0004
2102.00,-0.0006
2089.00,-0.0005
2076.00,-0.0008
2063.00,-0.0012
2050.00,-0.0018
2037.00,-0.0040
2024.00,-0.0055
2011.00,-0.0050
1998.00,-0.0034
1985.00,-0.0026
1972.00,-0.0024
1959.00,-0.0002
1946.00,0.0011
1933.00,0.0015
1920.00,0.0018
1907.00,0.0019
1894.00,0.0025
1881.00,0.0029
1868.00,0.0030
1855.00,0.0030
1842.00,0.0027
1829.00,0.0027
1816.00,0.0028
1803.00,0.0032
1790.00,0.0035
1777.00,0.0038
1764.00,0.0039
1751.00,0.0038
1738.00,0.0041
1725.00,0.0046
1712.00,0.0051
1699.00,0.0060
1686.00,0.0075
1673.00,0.0086
1660.00,0.0096
1647.00,0.0106
1634.00,0.0112
1621.00,0.0109
1608.00,0.0095
1595.00,0.0082
1582.00,0.0074
1569.00,0.0067
1556.00,0.0062
1543.00,0.0067
1530.00,0.0068
1517.00,0.0068
1504.00,0.0073
1491.00,0.0080
1478.00,0.0090
1465.00,0.0093
1452.00,0.0124
1439.00,0.0135
1426.00,0.0149
1413.00,0.0247
1400.00,0.0209
1387.00,0.0126
1374.00,0.0105
1361.00,0.0099
1348.00,0.0100
1335.00,0.0102
1322.00,0.0110
1309.00,0.0128
1296.00,0.0159
1283.00,0.0230
1270.00,0.0658
1257.00,0.2727
1244.00,0.0951
1231.00,0.1021
1218.00,0.1164
1205.00,0.1286
1192.00,0.1397
1179.00,0.1512
1166.00,0.1629
1153.00,0.1742
1140.00,0.1885
1127.00,0.2120
1114.00,0.2649
1101.00,0.3906
1088.00,0.5534
1075.00,0.6559
1062.00,0.6938
1049.00,0.6970
1036.00,0.7041
1023.00,0.7937
1010.00,1.0597
997.00,0.7483
984.00,0.3845
971.00,0.2365
958.00,0.1745
945.00,0.1348
932.00,0.1055
919.00,0.0863
906.00,0.0792
893.00,0.0829
880.00,0.1160
867.00,0.1485
854.00,0.1237
841.00,0.1143
828.00,0.1750
815.00,0.3585
802.00,0.6288
789.00,1.0770
776.00,0.6936
763.00,0.3304
750.00,0.2151
737.00,0.1656
724.00,0.1347
711.00,0.1511
698.00,0.1849
685.00,0.1817
672.00,0.1597
659.00,0.1658
646.00,0.1006
633.00,0.0983
620.00,0.0998
607.00,0.1024
594.00,0.1084
581.00,0.1176
568.00,0.1273
555.00,0.1362
542.00,0.1399
529.00,0.1408
516.00,0.1478
503.00,0.1769
490.00,0.2598
477.00,0.4173
464.00,0.5587
451.00,0.5673
438.00,0.4708
425.00,0.3511
412.00,0.3459
400.00,0.4826