File: FTIR/Olivia/2025_06_24_Polystyrene_Std_scan3.csv
Created as New Dataset,Sample 717 By YargerLab Date Tuesday, June 24 2025
cm-1,A
4000.00,0.0023
3987.00,0.0021
3974.00,0.0022
3961.00,0.0021
3948.00,0.0022
3935.00,0.0022
3922.00,0.0022
3909.00,0.0021
3896.00,0.0021
3883.00,0.0021
3870.00,0.0021
3857.00,0.0022
3844.00,0.0021
3831.00,0.0022
3818.00,0.0022
3805.00,0.0022
3792.00,0.0022
3779.00,0.0021
3766.00,0.0022
3753.00,0.0023
3740.00,0.0023
3727.00,0.0021
3714.00,0.0021
3701.00,0.0021
3688.00,0.0019
3675.00,0.0014
3662.00,0.0011
3649.00,0.0013
3636.00,0.0014
3623.00,0.0019
3610.00,0.0020
3597.00,0.0018
3584.00,0.0019
3571.00,0.0019
3558.00,0.0019
3545.00,0.0020
3532.00,0.0021
3519.00,0.0020
3506.00,0.0020
3493.00,0.0021
3480.00,0.0021
3467.00,0.0021
3454.00,0.0020
3441.00,0.0020
3428.00,0.0020
3415.00,0.0020
3402.00,0.0020
3389.00,0.0021
3376.00,0.0020
3363.00,0.0020
3350.00,0.0020
3337.00,0.0019
3324.00,0.0019
3311.00,0.0020
3298.00,0.0020
3285.00,0.0019
3272.00,0.0020
3259.00,0.0019
3246.00,0.0019
3233.00,0.0018
3220.00,0.0018
3207.00,0.0019
3194.00,0.0018
3181.00,0.0018
3168.00,0.0020
3155.00,0.0019
3142.00,0.0019
3129.00,0.0019
3116.00,0.0024
3103.00,0.0045
3090.00,0.0060
3077.00,0.0084
3064.00,0.0121
3051.00,0.0090
3038.00,0.0099
3025.00,0.0270
3012.00,0.0068
2999.00,0.0031
2986.00,-0.0026
2973.00,-0.0036
2960.00,0.0009
2947.00,0.0078
2934.00,0.0201
2921.00,0.0299
2908.00,0.0221
2895.00,0.0118
2882.00,0.0074
2869.00,0.0064
2856.00,0.0112
2843.00,0.0115
2830.00,0.0042
2817.00,0.0033
2804.00,0.0031
2791.00,0.0028
2778.00,0.0027
2765.00,0.0026
2752.00,0.0025
2739.00,0.0025
2726.00,0.0026
2713.00,0.0026
2700.00,0.0025
2687.00,0.0025
2674.00,0.0025
2661.00,0.0028
2648.00,0.0029
2635.00,0.0030
2622.00,0.0029
2609.00,0.0028
2596.00,0.0027
2583.00,0.0026
2570.00,0.0024
2557.00,0.0023
2544.00,0.0023
2531.00,0.0022
2518.00,0.0022
2505.00,0.0022
2492.00,0.0022
2479.00,0.0020
2466.00,0.0021
2453.00,0.0020
2440.00,0.0020
2427.00,0.0018
2414.00,0.0018
2401.00,0.0016
2388.00,0.0016
2375.00,0.0017
2362.00,0.0019
2349.00,0.0020
2336.00,0.0025
2323.00,0.0032
2310.00,0.0027
2297.00,0.0026
2284.00,0.0028
2271.00,0.0024
2258.00,0.0024
2245.00,0.0021
2232.00,0.0020
2219.00,0.0020
2206.00,0.0019
2193.00,0.0018
2180.00,0.0014
2167.00,0.0025
2154.00,-0.0006
2141.00,-0.0002
2128.00,0.0002
2115.00,0.0015
2102.00,0.0013
2089.00,0.0015
2076.00,0.0015
2063.00,0.0013
2050.00,0.0023
2037.00,0.0012
2024.00,0.0007
2011.00,0.0009
1998.00,0.0010
1985.00,0.0022
1972.00,0.0012
1959.00,0.0017
1946.00,0.0041
1933.00,0.0030
1920.00,0.0017
1907.00,0.0015
1894.00,0.0024
1881.00,0.0036
1868.00,0.0041
1855.00,0.0023
1842.00,0.0017
1829.00,0.0022
1816.00,0.0031
1803.00,0.0048
1790.00,0.0032
1777.00,0.0025
1764.00,0.0027
1751.00,0.0044
1738.00,0.0048
1725.00,0.0037
1712.00,0.0031
1699.00,0.0029
1686.00,0.0031
1673.00,0.0034
1660.00,0.0030
1647.00,0.0025
1634.00,0.0025
1621.00,0.0033
1608.00,0.0106
1595.00,0.0138
1582.00,0.0111
1569.00,0.0036
1556.00,0.0035
1543.00,0.0051
1530.00,0.0038
1517.00,0.0035
1504.00,0.0062
1491.00,0.0609
1478.00,0.0075
1465.00,0.0069
1452.00,0.0682
1439.00,0.0241
1426.00,0.0070
1413.00,0.0048
1400.00,0.0032
1387.00,0.0057
1374.00,0.0117
1361.00,0.0121
1348.00,0.0112
1335.00,0.0103
1322.00,0.0112
1309.00,0.0116
1296.00,0.0092
1283.00,0.0081
1270.00,0.0056
1257.00,0.0045
1244.00,0.0049
1231.00,0.0052
1218.00,0.0060
1205.00,0.0079
1192.00,0.0098
1179.00,0.0116
1166.00,0.0052
1153.00,0.0104
1140.00,0.0030
1127.00,0.0033
1114.00,0.0063
1101.00,0.0065
1088.00,0.0077
1075.00,0.0137
1062.00,0.0141
1049.00,0.0097
1036.00,0.0148
1023.00,0.0258
1010.00,0.0137
997.00,0.0107
984.00,0.0120
971.00,0.0101
958.00,0.0087
945.00,0.0087
932.00,0.0071
919.00,0.0096
906.00,0.0240
893.00,0.0087
880.00,0.0062
867.00,0.0055
854.00,0.0062
841.00,0.0123
828.00,0.0052
815.00,0.0049
802.00,0.0062
789.00,0.0123
776.00,0.0306
763.00,0.0813
750.00,0.1058
737.00,0.0442
724.00,0.0123
711.00,0.0274
698.00,0.2870
685.00,0.0998
672.00,0.0441
659.00,0.0257
646.00,0.0161
633.00,0.0182
620.00,0.0220
607.00,0.0166
594.00,0.0186
581.00,0.0241
568.00,0.0413
555.00,0.0594
542.00,0.0949
529.00,0.0671
516.00,0.0326
503.00,0.0208
490.00,0.0158
477.00,0.0136
464.00,0.0116
451.00,0.0115
438.00,0.0101
425.00,0.0107
412.00,0.0084
400.00,0.0091