File: FTIR/Olivia/2025_07_26_Polystyrene_Std_scan1.csv
Created as New Dataset,Sample 917 By YargerLab Date Thursday, July 24 2025
cm-1,A
4000.00,0.0006
3987.00,0.0006
3974.00,0.0006
3961.00,0.0006
3948.00,0.0005
3935.00,0.0006
3922.00,0.0005
3909.00,0.0005
3896.00,0.0005
3883.00,0.0004
3870.00,0.0004
3857.00,0.0005
3844.00,0.0005
3831.00,0.0005
3818.00,0.0006
3805.00,0.0005
3792.00,0.0006
3779.00,0.0007
3766.00,0.0007
3753.00,0.0005
3740.00,0.0004
3727.00,0.0005
3714.00,0.0004
3701.00,0.0005
3688.00,0.0004
3675.00,0.0004
3662.00,0.0005
3649.00,0.0005
3636.00,0.0005
3623.00,0.0005
3610.00,0.0005
3597.00,0.0005
3584.00,0.0006
3571.00,0.0007
3558.00,0.0007
3545.00,0.0007
3532.00,0.0008
3519.00,0.0009
3506.00,0.0009
3493.00,0.0010
3480.00,0.0010
3467.00,0.0011
3454.00,0.0011
3441.00,0.0011
3428.00,0.0012
3415.00,0.0012
3402.00,0.0011
3389.00,0.0012
3376.00,0.0012
3363.00,0.0012
3350.00,0.0012
3337.00,0.0012
3324.00,0.0012
3311.00,0.0012
3298.00,0.0012
3285.00,0.0011
3272.00,0.0011
3259.00,0.0011
3246.00,0.0011
3233.00,0.0011
3220.00,0.0010
3207.00,0.0011
3194.00,0.0011
3181.00,0.0010
3168.00,0.0010
3155.00,0.0010
3142.00,0.0009
3129.00,0.0009
3116.00,0.0014
3103.00,0.0032
3090.00,0.0046
3077.00,0.0066
3064.00,0.0099
3051.00,0.0071
3038.00,0.0080
3025.00,0.0222
3012.00,0.0060
2999.00,0.0055
2986.00,0.0027
2973.00,0.0033
2960.00,0.0054
2947.00,0.0099
2934.00,0.0202
2921.00,0.0275
2908.00,0.0209
2895.00,0.0125
2882.00,0.0086
2869.00,0.0070
2856.00,0.0106
2843.00,0.0097
2830.00,0.0032
2817.00,0.0023
2804.00,0.0020
2791.00,0.0017
2778.00,0.0016
2765.00,0.0014
2752.00,0.0013
2739.00,0.0013
2726.00,0.0013
2713.00,0.0013
2700.00,0.0013
2687.00,0.0013
2674.00,0.0013
2661.00,0.0016
2648.00,0.0017
2635.00,0.0018
2622.00,0.0017
2609.00,0.0016
2596.00,0.0014
2583.00,0.0013
2570.00,0.0012
2557.00,0.0011
2544.00,0.0010
2531.00,0.0009
2518.00,0.0010
2505.00,0.0009
2492.00,0.0009
2479.00,0.0007
2466.00,0.0007
2453.00,0.0008
2440.00,0.0007
2427.00,0.0005
2414.00,0.0004
2401.00,0.0002
2388.00,0.0003
2375.00,0.0001
2362.00,0.0003
2349.00,0.0005
2336.00,0.0009
2323.00,0.0020
2310.00,0.0014
2297.00,0.0013
2284.00,0.0015
2271.00,0.0011
2258.00,0.0011
2245.00,0.0008
2232.00,0.0008
2219.00,0.0006
2206.00,0.0006
2193.00,0.0009
2180.00,-0.0001
2167.00,0.0016
2154.00,-0.0017
2141.00,-0.0015
2128.00,-0.0011
2115.00,0.0002
2102.00,0.0001
2089.00,0.0001
2076.00,0.0001
2063.00,0.0000
2050.00,0.0006
2037.00,0.0001
2024.00,-0.0005
2011.00,-0.0004
1998.00,-0.0002
1985.00,0.0008
1972.00,-0.0002
1959.00,0.0004
1946.00,0.0022
1933.00,0.0009
1920.00,0.0001
1907.00,0.0001
1894.00,0.0008
1881.00,0.0018
1868.00,0.0023
1855.00,0.0008
1842.00,0.0003
1829.00,0.0007
1816.00,0.0015
1803.00,0.0028
1790.00,0.0017
1777.00,0.0014
1764.00,0.0018
1751.00,0.0033
1738.00,0.0040
1725.00,0.0033
1712.00,0.0026
1699.00,0.0024
1686.00,0.0028
1673.00,0.0031
1660.00,0.0029
1647.00,0.0022
1634.00,0.0019
1621.00,0.0022
1608.00,0.0079
1595.00,0.0101
1582.00,0.0079
1569.00,0.0021
1556.00,0.0020
1543.00,0.0029
1530.00,0.0019
1517.00,0.0017
1504.00,0.0040
1491.00,0.0429
1478.00,0.0054
1465.00,0.0060
1452.00,0.0485
1439.00,0.0183
1426.00,0.0058
1413.00,0.0042
1400.00,0.0038
1387.00,0.0067
1374.00,0.0106
1361.00,0.0098
1348.00,0.0088
1335.00,0.0079
1322.00,0.0082
1309.00,0.0083
1296.00,0.0069
1283.00,0.0062
1270.00,0.0050
1257.00,0.0045
1244.00,0.0047
1231.00,0.0045
1218.00,0.0046
1205.00,0.0059
1192.00,0.0072
1179.00,0.0094
1166.00,0.0058
1153.00,0.0097
1140.00,0.0041
1127.00,0.0041
1114.00,0.0055
1101.00,0.0055
1088.00,0.0068
1075.00,0.0112
1062.00,0.0107
1049.00,0.0070
1036.00,0.0101
1023.00,0.0169
1010.00,0.0090
997.00,0.0070
984.00,0.0080
971.00,0.0077
958.00,0.0074
945.00,0.0072
932.00,0.0051
919.00,0.0061
906.00,0.0148
893.00,0.0052
880.00,0.0036
867.00,0.0030
854.00,0.0035
841.00,0.0073
828.00,0.0029
815.00,0.0030
802.00,0.0034
789.00,0.0071
776.00,0.0188
763.00,0.0486
750.00,0.0614
737.00,0.0270
724.00,0.0068
711.00,0.0172
698.00,0.1388
685.00,0.0515
672.00,0.0242
659.00,0.0146
646.00,0.0098
633.00,0.0106
620.00,0.0127
607.00,0.0100
594.00,0.0109
581.00,0.0141
568.00,0.0238
555.00,0.0336
542.00,0.0516
529.00,0.0364
516.00,0.0184
503.00,0.0119
490.00,0.0090
477.00,0.0082
464.00,0.0073
451.00,0.0067
438.00,0.0063
425.00,0.0062
412.00,0.0068
400.00,0.0047