File: FTIR/Olivia/2025_08_01_1CBN_3PVP29_mortar_dry_scan2.csv
Created as New Dataset,Sample 1021 By YargerLab Date Friday, August 01 2025
cm-1,A
4000.00,0.0065
3987.00,0.0065
3974.00,0.0066
3961.00,0.0065
3948.00,0.0065
3935.00,0.0064
3922.00,0.0065
3909.00,0.0065
3896.00,0.0064
3883.00,0.0064
3870.00,0.0064
3857.00,0.0065
3844.00,0.0064
3831.00,0.0063
3818.00,0.0063
3805.00,0.0063
3792.00,0.0063
3779.00,0.0063
3766.00,0.0064
3753.00,0.0064
3740.00,0.0063
3727.00,0.0062
3714.00,0.0062
3701.00,0.0061
3688.00,0.0061
3675.00,0.0063
3662.00,0.0064
3649.00,0.0067
3636.00,0.0070
3623.00,0.0073
3610.00,0.0079
3597.00,0.0085
3584.00,0.0091
3571.00,0.0099
3558.00,0.0108
3545.00,0.0118
3532.00,0.0128
3519.00,0.0138
3506.00,0.0148
3493.00,0.0159
3480.00,0.0174
3467.00,0.0192
3454.00,0.0213
3441.00,0.0237
3428.00,0.0270
3415.00,0.0307
3402.00,0.0332
3389.00,0.0326
3376.00,0.0303
3363.00,0.0279
3350.00,0.0263
3337.00,0.0253
3324.00,0.0251
3311.00,0.0255
3298.00,0.0265
3285.00,0.0277
3272.00,0.0288
3259.00,0.0300
3246.00,0.0308
3233.00,0.0309
3220.00,0.0304
3207.00,0.0287
3194.00,0.0264
3181.00,0.0240
3168.00,0.0216
3155.00,0.0191
3142.00,0.0171
3129.00,0.0154
3116.00,0.0142
3103.00,0.0129
3090.00,0.0125
3077.00,0.0123
3064.00,0.0118
3051.00,0.0119
3038.00,0.0121
3025.00,0.0119
3012.00,0.0112
2999.00,0.0143
2986.00,0.0199
2973.00,0.0291
2960.00,0.0381
2947.00,0.0295
2934.00,0.0454
2921.00,0.0530
2908.00,0.0349
2895.00,0.0266
2882.00,0.0233
2869.00,0.0287
2856.00,0.0413
2843.00,0.0245
2830.00,0.0155
2817.00,0.0126
2804.00,0.0115
2791.00,0.0106
2778.00,0.0099
2765.00,0.0097
2752.00,0.0097
2739.00,0.0100
2726.00,0.0103
2713.00,0.0098
2700.00,0.0096
2687.00,0.0093
2674.00,0.0092
2661.00,0.0098
2648.00,0.0099
2635.00,0.0096
2622.00,0.0091
2609.00,0.0090
2596.00,0.0092
2583.00,0.0093
2570.00,0.0089
2557.00,0.0087
2544.00,0.0086
2531.00,0.0085
2518.00,0.0083
2505.00,0.0080
2492.00,0.0078
2479.00,0.0078
2466.00,0.0077
2453.00,0.0078
2440.00,0.0076
2427.00,0.0074
2414.00,0.0074
2401.00,0.0073
2388.00,0.0072
2375.00,0.0069
2362.00,0.0069
2349.00,0.0071
2336.00,0.0072
2323.00,0.0082
2310.00,0.0074
2297.00,0.0078
2284.00,0.0083
2271.00,0.0076
2258.00,0.0072
2245.00,0.0070
2232.00,0.0074
2219.00,0.0072
2206.00,0.0075
2193.00,0.0074
2180.00,0.0073
2167.00,0.0079
2154.00,0.0049
2141.00,0.0055
2128.00,0.0057
2115.00,0.0066
2102.00,0.0064
2089.00,0.0065
2076.00,0.0066
2063.00,0.0064
2050.00,0.0066
2037.00,0.0064
2024.00,0.0059
2011.00,0.0055
1998.00,0.0054
1985.00,0.0063
1972.00,0.0050
1959.00,0.0048
1946.00,0.0053
1933.00,0.0055
1920.00,0.0060
1907.00,0.0075
1894.00,0.0066
1881.00,0.0060
1868.00,0.0061
1855.00,0.0063
1842.00,0.0066
1829.00,0.0061
1816.00,0.0060
1803.00,0.0063
1790.00,0.0066
1777.00,0.0068
1764.00,0.0070
1751.00,0.0069
1738.00,0.0070
1725.00,0.0086
1712.00,0.0108
1699.00,0.0139
1686.00,0.0213
1673.00,0.0376
1660.00,0.0549
1647.00,0.0649
1634.00,0.0621
1621.00,0.0930
1608.00,0.0655
1595.00,0.0349
1582.00,0.0604
1569.00,0.0367
1556.00,0.0192
1543.00,0.0157
1530.00,0.0145
1517.00,0.0177
1504.00,0.0242
1491.00,0.0375
1478.00,0.0205
1465.00,0.0527
1452.00,0.0451
1439.00,0.0668
1426.00,0.0790
1413.00,0.0542
1400.00,0.0713
1387.00,0.0502
1374.00,0.0430
1361.00,0.0569
1348.00,0.0445
1335.00,0.0341
1322.00,0.0395
1309.00,0.0369
1296.00,0.0652
1283.00,0.0811
1270.00,0.0569
1257.00,0.0376
1244.00,0.0463
1231.00,0.0636
1218.00,0.0488
1205.00,0.0392
1192.00,0.0635
1179.00,0.0314
1166.00,0.0299
1153.00,0.0620
1140.00,0.0274
1127.00,0.0754
1114.00,0.0374
1101.00,0.0489
1088.00,0.0259
1075.00,0.0259
1062.00,0.0413
1049.00,0.0983
1036.00,0.0504
1023.00,0.0716
1010.00,0.0340
997.00,0.0421
984.00,0.0264
971.00,0.0239
958.00,0.0218
945.00,0.0200
932.00,0.0278
919.00,0.0278
906.00,0.0199
893.00,0.0271
880.00,0.0235
867.00,0.0591
854.00,0.0449
841.00,0.0425
828.00,0.0433
815.00,0.0761
802.00,0.0259
789.00,0.0244
776.00,0.0300
763.00,0.0298
750.00,0.0332
737.00,0.0518
724.00,0.0471
711.00,0.0466
698.00,0.0495
685.00,0.0533
672.00,0.0622
659.00,0.0650
646.00,0.0616
633.00,0.0581
620.00,0.0648
607.00,0.0639
594.00,0.0769
581.00,0.0770
568.00,0.0738
555.00,0.0781
542.00,0.0819
529.00,0.0815
516.00,0.0657
503.00,0.0664
490.00,0.0661
477.00,0.0616
464.00,0.0597
451.00,0.0573
438.00,0.0559
425.00,0.0521
412.00,0.0534
400.00,0.0508