File: FTIR/Olivia/2025_08_06_1CBN_3PVP10_MP_Powder_Scan3.csv
Created as New Dataset,Sample 1090 By YargerLab Date Wednesday, August 06 2025
cm-1,A
4000.00,0.0079
3987.00,0.0079
3974.00,0.0080
3961.00,0.0080
3948.00,0.0079
3935.00,0.0079
3922.00,0.0080
3909.00,0.0079
3896.00,0.0079
3883.00,0.0079
3870.00,0.0079
3857.00,0.0079
3844.00,0.0078
3831.00,0.0078
3818.00,0.0078
3805.00,0.0078
3792.00,0.0078
3779.00,0.0078
3766.00,0.0078
3753.00,0.0078
3740.00,0.0077
3727.00,0.0075
3714.00,0.0077
3701.00,0.0076
3688.00,0.0078
3675.00,0.0081
3662.00,0.0083
3649.00,0.0087
3636.00,0.0094
3623.00,0.0102
3610.00,0.0113
3597.00,0.0125
3584.00,0.0142
3571.00,0.0157
3558.00,0.0176
3545.00,0.0194
3532.00,0.0209
3519.00,0.0222
3506.00,0.0233
3493.00,0.0245
3480.00,0.0260
3467.00,0.0276
3454.00,0.0294
3441.00,0.0314
3428.00,0.0338
3415.00,0.0366
3402.00,0.0383
3389.00,0.0375
3376.00,0.0352
3363.00,0.0328
3350.00,0.0310
3337.00,0.0299
3324.00,0.0296
3311.00,0.0295
3298.00,0.0300
3285.00,0.0308
3272.00,0.0311
3259.00,0.0318
3246.00,0.0321
3233.00,0.0320
3220.00,0.0313
3207.00,0.0297
3194.00,0.0276
3181.00,0.0254
3168.00,0.0232
3155.00,0.0209
3142.00,0.0190
3129.00,0.0175
3116.00,0.0163
3103.00,0.0151
3090.00,0.0148
3077.00,0.0144
3064.00,0.0140
3051.00,0.0141
3038.00,0.0142
3025.00,0.0141
3012.00,0.0141
2999.00,0.0187
2986.00,0.0268
2973.00,0.0375
2960.00,0.0468
2947.00,0.0398
2934.00,0.0537
2921.00,0.0593
2908.00,0.0420
2895.00,0.0346
2882.00,0.0319
2869.00,0.0358
2856.00,0.0454
2843.00,0.0282
2830.00,0.0191
2817.00,0.0155
2804.00,0.0140
2791.00,0.0130
2778.00,0.0123
2765.00,0.0119
2752.00,0.0119
2739.00,0.0121
2726.00,0.0124
2713.00,0.0119
2700.00,0.0117
2687.00,0.0112
2674.00,0.0111
2661.00,0.0117
2648.00,0.0118
2635.00,0.0116
2622.00,0.0110
2609.00,0.0109
2596.00,0.0110
2583.00,0.0111
2570.00,0.0109
2557.00,0.0105
2544.00,0.0104
2531.00,0.0104
2518.00,0.0100
2505.00,0.0096
2492.00,0.0096
2479.00,0.0094
2466.00,0.0093
2453.00,0.0095
2440.00,0.0092
2427.00,0.0092
2414.00,0.0091
2401.00,0.0091
2388.00,0.0087
2375.00,0.0084
2362.00,0.0084
2349.00,0.0086
2336.00,0.0090
2323.00,0.0102
2310.00,0.0091
2297.00,0.0095
2284.00,0.0100
2271.00,0.0094
2258.00,0.0090
2245.00,0.0091
2232.00,0.0090
2219.00,0.0085
2206.00,0.0090
2193.00,0.0090
2180.00,0.0088
2167.00,0.0098
2154.00,0.0062
2141.00,0.0071
2128.00,0.0075
2115.00,0.0085
2102.00,0.0083
2089.00,0.0082
2076.00,0.0084
2063.00,0.0079
2050.00,0.0087
2037.00,0.0078
2024.00,0.0070
2011.00,0.0068
1998.00,0.0070
1985.00,0.0079
1972.00,0.0061
1959.00,0.0062
1946.00,0.0064
1933.00,0.0069
1920.00,0.0073
1907.00,0.0087
1894.00,0.0081
1881.00,0.0076
1868.00,0.0077
1855.00,0.0077
1842.00,0.0079
1829.00,0.0077
1816.00,0.0075
1803.00,0.0080
1790.00,0.0081
1777.00,0.0087
1764.00,0.0089
1751.00,0.0089
1738.00,0.0093
1725.00,0.0122
1712.00,0.0166
1699.00,0.0303
1686.00,0.0675
1673.00,0.1117
1660.00,0.1423
1647.00,0.1415
1634.00,0.1036
1621.00,0.1134
1608.00,0.0762
1595.00,0.0422
1582.00,0.0631
1569.00,0.0394
1556.00,0.0222
1543.00,0.0195
1530.00,0.0181
1517.00,0.0216
1504.00,0.0318
1491.00,0.0493
1478.00,0.0281
1465.00,0.0745
1452.00,0.0635
1439.00,0.0973
1426.00,0.1224
1413.00,0.0813
1400.00,0.0791
1387.00,0.0582
1374.00,0.0577
1361.00,0.0673
1348.00,0.0501
1335.00,0.0415
1322.00,0.0531
1309.00,0.0520
1296.00,0.0916
1283.00,0.1333
1270.00,0.1081
1257.00,0.0659
1244.00,0.0659
1231.00,0.0843
1218.00,0.0705
1205.00,0.0559
1192.00,0.0745
1179.00,0.0443
1166.00,0.0454
1153.00,0.0698
1140.00,0.0354
1127.00,0.0763
1114.00,0.0422
1101.00,0.0537
1088.00,0.0324
1075.00,0.0329
1062.00,0.0474
1049.00,0.0966
1036.00,0.0541
1023.00,0.0766
1010.00,0.0408
997.00,0.0466
984.00,0.0304
971.00,0.0277
958.00,0.0260
945.00,0.0243
932.00,0.0343
919.00,0.0317
906.00,0.0257
893.00,0.0328
880.00,0.0279
867.00,0.0583
854.00,0.0509
841.00,0.0521
828.00,0.0489
815.00,0.0760
802.00,0.0287
789.00,0.0274
776.00,0.0339
763.00,0.0352
750.00,0.0415
737.00,0.0623
724.00,0.0541
711.00,0.0521
698.00,0.0565
685.00,0.0618
672.00,0.0746
659.00,0.0842
646.00,0.0850
633.00,0.0772
620.00,0.0817
607.00,0.0816
594.00,0.0946
581.00,0.1013
568.00,0.1008
555.00,0.0995
542.00,0.1004
529.00,0.1008
516.00,0.0850
503.00,0.0862
490.00,0.0870
477.00,0.0834
464.00,0.0818
451.00,0.0775
438.00,0.0751
425.00,0.0700
412.00,0.0708
400.00,0.0692