File: FTIR/Olivia/2025_08_04_Polystyrene_film_scan1.csv
Created as New Dataset,Sample 1029 By YargerLab Date Friday, August 01 2025
cm-1,A
4000.00,0.0003
3987.00,0.0002
3974.00,0.0002
3961.00,0.0002
3948.00,0.0001
3935.00,0.0002
3922.00,0.0003
3909.00,0.0002
3896.00,0.0002
3883.00,0.0003
3870.00,0.0003
3857.00,0.0003
3844.00,0.0003
3831.00,0.0003
3818.00,0.0003
3805.00,0.0004
3792.00,0.0003
3779.00,0.0002
3766.00,0.0002
3753.00,0.0004
3740.00,0.0002
3727.00,0.0001
3714.00,0.0002
3701.00,0.0001
3688.00,0.0002
3675.00,0.0003
3662.00,0.0003
3649.00,0.0002
3636.00,0.0002
3623.00,0.0002
3610.00,0.0002
3597.00,0.0002
3584.00,0.0002
3571.00,0.0002
3558.00,0.0004
3545.00,0.0004
3532.00,0.0005
3519.00,0.0006
3506.00,0.0007
3493.00,0.0007
3480.00,0.0008
3467.00,0.0008
3454.00,0.0008
3441.00,0.0009
3428.00,0.0009
3415.00,0.0009
3402.00,0.0010
3389.00,0.0009
3376.00,0.0009
3363.00,0.0009
3350.00,0.0010
3337.00,0.0009
3324.00,0.0009
3311.00,0.0009
3298.00,0.0009
3285.00,0.0008
3272.00,0.0008
3259.00,0.0008
3246.00,0.0007
3233.00,0.0007
3220.00,0.0007
3207.00,0.0006
3194.00,0.0006
3181.00,0.0006
3168.00,0.0006
3155.00,0.0006
3142.00,0.0004
3129.00,0.0004
3116.00,0.0005
3103.00,0.0011
3090.00,0.0014
3077.00,0.0021
3064.00,0.0028
3051.00,0.0023
3038.00,0.0023
3025.00,0.0066
3012.00,0.0019
2999.00,0.0019
2986.00,0.0013
2973.00,0.0020
2960.00,0.0034
2947.00,0.0044
2934.00,0.0086
2921.00,0.0135
2908.00,0.0090
2895.00,0.0054
2882.00,0.0036
2869.00,0.0033
2856.00,0.0054
2843.00,0.0043
2830.00,0.0012
2817.00,0.0008
2804.00,0.0007
2791.00,0.0005
2778.00,0.0005
2765.00,0.0004
2752.00,0.0004
2739.00,0.0004
2726.00,0.0004
2713.00,0.0004
2700.00,0.0003
2687.00,0.0004
2674.00,0.0004
2661.00,0.0007
2648.00,0.0009
2635.00,0.0008
2622.00,0.0007
2609.00,0.0006
2596.00,0.0006
2583.00,0.0005
2570.00,0.0003
2557.00,0.0003
2544.00,0.0003
2531.00,0.0002
2518.00,0.0002
2505.00,0.0001
2492.00,0.0002
2479.00,0.0000
2466.00,0.0001
2453.00,0.0002
2440.00,0.0001
2427.00,-0.0000
2414.00,-0.0001
2401.00,-0.0002
2388.00,-0.0003
2375.00,-0.0004
2362.00,-0.0004
2349.00,-0.0004
2336.00,0.0001
2323.00,0.0009
2310.00,0.0001
2297.00,0.0005
2284.00,0.0009
2271.00,0.0005
2258.00,0.0003
2245.00,0.0002
2232.00,0.0004
2219.00,0.0002
2206.00,-0.0001
2193.00,0.0001
2180.00,0.0000
2167.00,0.0006
2154.00,-0.0023
2141.00,-0.0014
2128.00,-0.0012
2115.00,-0.0001
2102.00,-0.0001
2089.00,-0.0003
2076.00,0.0000
2063.00,-0.0002
2050.00,0.0007
2037.00,0.0002
2024.00,-0.0004
2011.00,-0.0008
1998.00,-0.0004
1985.00,0.0005
1972.00,-0.0007
1959.00,-0.0009
1946.00,-0.0001
1933.00,-0.0004
1920.00,-0.0006
1907.00,-0.0006
1894.00,-0.0003
1881.00,0.0001
1868.00,0.0002
1855.00,-0.0002
1842.00,-0.0004
1829.00,-0.0002
1816.00,-0.0000
1803.00,0.0007
1790.00,0.0003
1777.00,0.0002
1764.00,0.0004
1751.00,0.0009
1738.00,0.0013
1725.00,0.0010
1712.00,0.0008
1699.00,0.0007
1686.00,0.0010
1673.00,0.0023
1660.00,0.0031
1647.00,0.0023
1634.00,0.0015
1621.00,0.0013
1608.00,0.0029
1595.00,0.0041
1582.00,0.0034
1569.00,0.0010
1556.00,0.0009
1543.00,0.0016
1530.00,0.0010
1517.00,0.0008
1504.00,0.0018
1491.00,0.0188
1478.00,0.0028
1465.00,0.0040
1452.00,0.0203
1439.00,0.0084
1426.00,0.0028
1413.00,0.0021
1400.00,0.0020
1387.00,0.0032
1374.00,0.0051
1361.00,0.0046
1348.00,0.0041
1335.00,0.0038
1322.00,0.0042
1309.00,0.0042
1296.00,0.0039
1283.00,0.0032
1270.00,0.0026
1257.00,0.0024
1244.00,0.0026
1231.00,0.0026
1218.00,0.0028
1205.00,0.0034
1192.00,0.0041
1179.00,0.0052
1166.00,0.0036
1153.00,0.0054
1140.00,0.0027
1127.00,0.0028
1114.00,0.0034
1101.00,0.0035
1088.00,0.0041
1075.00,0.0062
1062.00,0.0063
1049.00,0.0042
1036.00,0.0058
1023.00,0.0096
1010.00,0.0054
997.00,0.0043
984.00,0.0047
971.00,0.0047
958.00,0.0048
945.00,0.0047
932.00,0.0034
919.00,0.0038
906.00,0.0090
893.00,0.0034
880.00,0.0025
867.00,0.0021
854.00,0.0024
841.00,0.0048
828.00,0.0023
815.00,0.0023
802.00,0.0026
789.00,0.0047
776.00,0.0118
763.00,0.0303
750.00,0.0391
737.00,0.0174
724.00,0.0051
711.00,0.0110
698.00,0.1072
685.00,0.0434
672.00,0.0192
659.00,0.0116
646.00,0.0071
633.00,0.0078
620.00,0.0093
607.00,0.0074
594.00,0.0082
581.00,0.0106
568.00,0.0177
555.00,0.0256
542.00,0.0408
529.00,0.0306
516.00,0.0153
503.00,0.0101
490.00,0.0086
477.00,0.0069
464.00,0.0070
451.00,0.0066
438.00,0.0061
425.00,0.0058
412.00,0.0049
400.00,0.0025