File: FTIR/Olivia/2025_08_05_Polystyrene_film_scan3.csv
Created as New Dataset,Sample 1068 By YargerLab Date Tuesday, August 05 2025
cm-1,A
4000.00,0.0002
3987.00,0.0002
3974.00,0.0002
3961.00,0.0002
3948.00,0.0002
3935.00,0.0001
3922.00,0.0002
3909.00,0.0002
3896.00,0.0001
3883.00,0.0001
3870.00,0.0000
3857.00,0.0001
3844.00,0.0002
3831.00,0.0001
3818.00,0.0001
3805.00,0.0001
3792.00,0.0002
3779.00,0.0002
3766.00,0.0002
3753.00,0.0002
3740.00,0.0001
3727.00,0.0001
3714.00,0.0002
3701.00,0.0002
3688.00,-0.0000
3675.00,0.0000
3662.00,0.0001
3649.00,-0.0002
3636.00,0.0001
3623.00,0.0001
3610.00,0.0001
3597.00,0.0001
3584.00,0.0001
3571.00,0.0002
3558.00,0.0002
3545.00,0.0002
3532.00,0.0003
3519.00,0.0003
3506.00,0.0003
3493.00,0.0004
3480.00,0.0004
3467.00,0.0004
3454.00,0.0005
3441.00,0.0005
3428.00,0.0005
3415.00,0.0005
3402.00,0.0005
3389.00,0.0004
3376.00,0.0004
3363.00,0.0004
3350.00,0.0004
3337.00,0.0004
3324.00,0.0004
3311.00,0.0004
3298.00,0.0004
3285.00,0.0004
3272.00,0.0004
3259.00,0.0004
3246.00,0.0004
3233.00,0.0003
3220.00,0.0004
3207.00,0.0003
3194.00,0.0003
3181.00,0.0003
3168.00,0.0003
3155.00,0.0003
3142.00,0.0002
3129.00,0.0003
3116.00,0.0005
3103.00,0.0014
3090.00,0.0020
3077.00,0.0032
3064.00,0.0045
3051.00,0.0035
3038.00,0.0036
3025.00,0.0110
3012.00,0.0027
2999.00,0.0023
2986.00,0.0008
2973.00,0.0009
2960.00,0.0017
2947.00,0.0039
2934.00,0.0086
2921.00,0.0123
2908.00,0.0094
2895.00,0.0053
2882.00,0.0035
2869.00,0.0026
2856.00,0.0042
2843.00,0.0042
2830.00,0.0012
2817.00,0.0008
2804.00,0.0007
2791.00,0.0005
2778.00,0.0005
2765.00,0.0005
2752.00,0.0005
2739.00,0.0005
2726.00,0.0005
2713.00,0.0005
2700.00,0.0005
2687.00,0.0005
2674.00,0.0005
2661.00,0.0008
2648.00,0.0010
2635.00,0.0010
2622.00,0.0009
2609.00,0.0008
2596.00,0.0008
2583.00,0.0006
2570.00,0.0005
2557.00,0.0005
2544.00,0.0004
2531.00,0.0004
2518.00,0.0004
2505.00,0.0003
2492.00,0.0002
2479.00,0.0003
2466.00,0.0003
2453.00,0.0003
2440.00,0.0002
2427.00,0.0000
2414.00,0.0000
2401.00,-0.0001
2388.00,-0.0001
2375.00,-0.0003
2362.00,-0.0001
2349.00,-0.0000
2336.00,0.0003
2323.00,0.0014
2310.00,0.0007
2297.00,0.0009
2284.00,0.0013
2271.00,0.0008
2258.00,0.0007
2245.00,0.0005
2232.00,0.0004
2219.00,0.0004
2206.00,0.0003
2193.00,0.0003
2180.00,0.0000
2167.00,0.0014
2154.00,-0.0022
2141.00,-0.0013
2128.00,-0.0013
2115.00,-0.0000
2102.00,0.0001
2089.00,-0.0002
2076.00,0.0001
2063.00,-0.0002
2050.00,0.0009
2037.00,0.0001
2024.00,-0.0003
2011.00,-0.0004
1998.00,-0.0003
1985.00,0.0007
1972.00,-0.0009
1959.00,-0.0005
1946.00,0.0006
1933.00,0.0002
1920.00,-0.0003
1907.00,-0.0003
1894.00,0.0002
1881.00,0.0007
1868.00,0.0009
1855.00,0.0001
1842.00,-0.0002
1829.00,0.0002
1816.00,0.0004
1803.00,0.0014
1790.00,0.0007
1777.00,0.0007
1764.00,0.0009
1751.00,0.0016
1738.00,0.0020
1725.00,0.0015
1712.00,0.0012
1699.00,0.0009
1686.00,0.0008
1673.00,0.0014
1660.00,0.0015
1647.00,0.0011
1634.00,0.0009
1621.00,0.0011
1608.00,0.0043
1595.00,0.0061
1582.00,0.0046
1569.00,0.0010
1556.00,0.0010
1543.00,0.0016
1530.00,0.0011
1517.00,0.0011
1504.00,0.0024
1491.00,0.0291
1478.00,0.0033
1465.00,0.0033
1452.00,0.0313
1439.00,0.0115
1426.00,0.0030
1413.00,0.0021
1400.00,0.0020
1387.00,0.0039
1374.00,0.0065
1361.00,0.0061
1348.00,0.0054
1335.00,0.0049
1322.00,0.0053
1309.00,0.0055
1296.00,0.0045
1283.00,0.0040
1270.00,0.0031
1257.00,0.0027
1244.00,0.0029
1231.00,0.0028
1218.00,0.0030
1205.00,0.0040
1192.00,0.0051
1179.00,0.0066
1166.00,0.0039
1153.00,0.0069
1140.00,0.0028
1127.00,0.0028
1114.00,0.0038
1101.00,0.0039
1088.00,0.0050
1075.00,0.0083
1062.00,0.0081
1049.00,0.0052
1036.00,0.0076
1023.00,0.0132
1010.00,0.0070
997.00,0.0056
984.00,0.0065
971.00,0.0063
958.00,0.0061
945.00,0.0061
932.00,0.0044
919.00,0.0052
906.00,0.0126
893.00,0.0044
880.00,0.0030
867.00,0.0027
854.00,0.0030
841.00,0.0063
828.00,0.0026
815.00,0.0027
802.00,0.0031
789.00,0.0063
776.00,0.0165
763.00,0.0433
750.00,0.0556
737.00,0.0236
724.00,0.0063
711.00,0.0150
698.00,0.1521
685.00,0.0569
672.00,0.0251
659.00,0.0148
646.00,0.0089
633.00,0.0099
620.00,0.0123
607.00,0.0093
594.00,0.0105
581.00,0.0139
568.00,0.0238
555.00,0.0345
542.00,0.0545
529.00,0.0396
516.00,0.0194
503.00,0.0133
490.00,0.0103
477.00,0.0083
464.00,0.0077
451.00,0.0074
438.00,0.0067
425.00,0.0061
412.00,0.0059
400.00,0.0068