File: FTIR/Olivia/2025_08_13_Polystyrene_Standard_scan3.csv
Created as New Dataset,Sample 055 By YargerLab Date Wednesday, August 13 2025
cm-1,A
4000.00,0.0020
3987.00,0.0020
3974.00,0.0019
3961.00,0.0019
3948.00,0.0018
3935.00,0.0018
3922.00,0.0018
3909.00,0.0018
3896.00,0.0016
3883.00,0.0016
3870.00,0.0016
3857.00,0.0015
3844.00,0.0017
3831.00,0.0017
3818.00,0.0015
3805.00,0.0016
3792.00,0.0017
3779.00,0.0017
3766.00,0.0017
3753.00,0.0014
3740.00,0.0014
3727.00,0.0017
3714.00,0.0015
3701.00,0.0017
3688.00,0.0015
3675.00,0.0015
3662.00,0.0018
3649.00,0.0016
3636.00,0.0018
3623.00,0.0017
3610.00,0.0016
3597.00,0.0018
3584.00,0.0017
3571.00,0.0018
3558.00,0.0020
3545.00,0.0020
3532.00,0.0020
3519.00,0.0021
3506.00,0.0022
3493.00,0.0022
3480.00,0.0022
3467.00,0.0022
3454.00,0.0023
3441.00,0.0024
3428.00,0.0023
3415.00,0.0023
3402.00,0.0023
3389.00,0.0023
3376.00,0.0022
3363.00,0.0022
3350.00,0.0022
3337.00,0.0022
3324.00,0.0021
3311.00,0.0021
3298.00,0.0020
3285.00,0.0021
3272.00,0.0021
3259.00,0.0020
3246.00,0.0020
3233.00,0.0020
3220.00,0.0021
3207.00,0.0020
3194.00,0.0020
3181.00,0.0019
3168.00,0.0021
3155.00,0.0020
3142.00,0.0020
3129.00,0.0020
3116.00,0.0025
3103.00,0.0048
3090.00,0.0067
3077.00,0.0092
3064.00,0.0139
3051.00,0.0097
3038.00,0.0111
3025.00,0.0303
3012.00,0.0083
2999.00,0.0080
2986.00,0.0044
2973.00,0.0048
2960.00,0.0068
2947.00,0.0127
2934.00,0.0263
2921.00,0.0360
2908.00,0.0267
2895.00,0.0157
2882.00,0.0110
2869.00,0.0088
2856.00,0.0136
2843.00,0.0124
2830.00,0.0046
2817.00,0.0037
2804.00,0.0034
2791.00,0.0030
2778.00,0.0029
2765.00,0.0027
2752.00,0.0026
2739.00,0.0026
2726.00,0.0026
2713.00,0.0026
2700.00,0.0026
2687.00,0.0026
2674.00,0.0025
2661.00,0.0027
2648.00,0.0027
2635.00,0.0028
2622.00,0.0025
2609.00,0.0025
2596.00,0.0024
2583.00,0.0024
2570.00,0.0021
2557.00,0.0020
2544.00,0.0020
2531.00,0.0019
2518.00,0.0019
2505.00,0.0019
2492.00,0.0020
2479.00,0.0018
2466.00,0.0017
2453.00,0.0018
2440.00,0.0016
2427.00,0.0015
2414.00,0.0015
2401.00,0.0014
2388.00,0.0014
2375.00,0.0017
2362.00,0.0019
2349.00,0.0021
2336.00,0.0023
2323.00,0.0027
2310.00,0.0024
2297.00,0.0020
2284.00,0.0020
2271.00,0.0017
2258.00,0.0016
2245.00,0.0014
2232.00,0.0013
2219.00,0.0012
2206.00,0.0011
2193.00,0.0013
2180.00,0.0009
2167.00,0.0017
2154.00,-0.0000
2141.00,0.0002
2128.00,0.0004
2115.00,0.0011
2102.00,0.0009
2089.00,0.0009
2076.00,0.0010
2063.00,0.0007
2050.00,0.0010
2037.00,0.0010
2024.00,0.0002
2011.00,0.0006
1998.00,0.0008
1985.00,0.0013
1972.00,0.0008
1959.00,0.0025
1946.00,0.0041
1933.00,0.0026
1920.00,0.0014
1907.00,0.0012
1894.00,0.0022
1881.00,0.0035
1868.00,0.0038
1855.00,0.0020
1842.00,0.0014
1829.00,0.0019
1816.00,0.0031
1803.00,0.0048
1790.00,0.0030
1777.00,0.0028
1764.00,0.0031
1751.00,0.0053
1738.00,0.0067
1725.00,0.0051
1712.00,0.0041
1699.00,0.0033
1686.00,0.0032
1673.00,0.0037
1660.00,0.0036
1647.00,0.0030
1634.00,0.0029
1621.00,0.0035
1608.00,0.0113
1595.00,0.0140
1582.00,0.0110
1569.00,0.0033
1556.00,0.0031
1543.00,0.0045
1530.00,0.0034
1517.00,0.0032
1504.00,0.0064
1491.00,0.0599
1478.00,0.0077
1465.00,0.0079
1452.00,0.0695
1439.00,0.0239
1426.00,0.0073
1413.00,0.0056
1400.00,0.0056
1387.00,0.0096
1374.00,0.0148
1361.00,0.0136
1348.00,0.0122
1335.00,0.0111
1322.00,0.0117
1309.00,0.0120
1296.00,0.0097
1283.00,0.0089
1270.00,0.0072
1257.00,0.0067
1244.00,0.0070
1231.00,0.0068
1218.00,0.0070
1205.00,0.0088
1192.00,0.0109
1179.00,0.0138
1166.00,0.0088
1153.00,0.0143
1140.00,0.0065
1127.00,0.0058
1114.00,0.0079
1101.00,0.0080
1088.00,0.0099
1075.00,0.0163
1062.00,0.0158
1049.00,0.0106
1036.00,0.0148
1023.00,0.0250
1010.00,0.0134
997.00,0.0106
984.00,0.0122
971.00,0.0121
958.00,0.0114
945.00,0.0112
932.00,0.0082
919.00,0.0096
906.00,0.0227
893.00,0.0083
880.00,0.0060
867.00,0.0053
854.00,0.0059
841.00,0.0115
828.00,0.0053
815.00,0.0052
802.00,0.0062
789.00,0.0114
776.00,0.0288
763.00,0.0746
750.00,0.0945
737.00,0.0394
724.00,0.0111
711.00,0.0255
698.00,0.2390
685.00,0.0824
672.00,0.0378
659.00,0.0228
646.00,0.0151
633.00,0.0166
620.00,0.0198
607.00,0.0153
594.00,0.0172
581.00,0.0222
568.00,0.0371
555.00,0.0534
542.00,0.0832
529.00,0.0581
516.00,0.0289
503.00,0.0188
490.00,0.0152
477.00,0.0128
464.00,0.0118
451.00,0.0104
438.00,0.0108
425.00,0.0102
412.00,0.0103
400.00,0.0100