File: FTIR/Olivia/2025_07_30_Polystyrene_Std_scan2.csv
Created as New Dataset,Sample 958 By YargerLab Date Wednesday, July 30 2025
cm-1,A
4000.00,0.0011
3987.00,0.0011
3974.00,0.0010
3961.00,0.0011
3948.00,0.0011
3935.00,0.0011
3922.00,0.0011
3909.00,0.0011
3896.00,0.0013
3883.00,0.0014
3870.00,0.0014
3857.00,0.0015
3844.00,0.0013
3831.00,0.0014
3818.00,0.0015
3805.00,0.0014
3792.00,0.0012
3779.00,0.0012
3766.00,0.0013
3753.00,0.0017
3740.00,0.0016
3727.00,0.0013
3714.00,0.0013
3701.00,0.0011
3688.00,0.0014
3675.00,0.0014
3662.00,0.0010
3649.00,0.0015
3636.00,0.0010
3623.00,0.0012
3610.00,0.0013
3597.00,0.0012
3584.00,0.0012
3571.00,0.0012
3558.00,0.0012
3545.00,0.0013
3532.00,0.0013
3519.00,0.0013
3506.00,0.0013
3493.00,0.0013
3480.00,0.0013
3467.00,0.0013
3454.00,0.0012
3441.00,0.0013
3428.00,0.0013
3415.00,0.0013
3402.00,0.0013
3389.00,0.0012
3376.00,0.0012
3363.00,0.0012
3350.00,0.0012
3337.00,0.0011
3324.00,0.0011
3311.00,0.0011
3298.00,0.0011
3285.00,0.0011
3272.00,0.0011
3259.00,0.0011
3246.00,0.0010
3233.00,0.0010
3220.00,0.0009
3207.00,0.0010
3194.00,0.0009
3181.00,0.0009
3168.00,0.0010
3155.00,0.0010
3142.00,0.0009
3129.00,0.0010
3116.00,0.0012
3103.00,0.0019
3090.00,0.0025
3077.00,0.0035
3064.00,0.0046
3051.00,0.0036
3038.00,0.0037
3025.00,0.0101
3012.00,0.0031
2999.00,0.0028
2986.00,0.0014
2973.00,0.0015
2960.00,0.0015
2947.00,0.0033
2934.00,0.0061
2921.00,0.0090
2908.00,0.0079
2895.00,0.0048
2882.00,0.0035
2869.00,0.0025
2856.00,0.0030
2843.00,0.0040
2830.00,0.0017
2817.00,0.0014
2804.00,0.0013
2791.00,0.0012
2778.00,0.0012
2765.00,0.0011
2752.00,0.0011
2739.00,0.0011
2726.00,0.0012
2713.00,0.0011
2700.00,0.0011
2687.00,0.0011
2674.00,0.0011
2661.00,0.0014
2648.00,0.0016
2635.00,0.0016
2622.00,0.0014
2609.00,0.0013
2596.00,0.0013
2583.00,0.0012
2570.00,0.0011
2557.00,0.0009
2544.00,0.0009
2531.00,0.0009
2518.00,0.0008
2505.00,0.0008
2492.00,0.0008
2479.00,0.0007
2466.00,0.0007
2453.00,0.0008
2440.00,0.0006
2427.00,0.0006
2414.00,0.0005
2401.00,0.0004
2388.00,0.0004
2375.00,0.0004
2362.00,0.0008
2349.00,0.0005
2336.00,0.0009
2323.00,0.0017
2310.00,0.0011
2297.00,0.0013
2284.00,0.0017
2271.00,0.0013
2258.00,0.0010
2245.00,0.0009
2232.00,0.0007
2219.00,0.0008
2206.00,0.0008
2193.00,0.0008
2180.00,0.0003
2167.00,0.0016
2154.00,-0.0016
2141.00,-0.0009
2128.00,-0.0007
2115.00,0.0004
2102.00,0.0005
2089.00,0.0003
2076.00,0.0008
2063.00,0.0002
2050.00,0.0011
2037.00,0.0007
2024.00,0.0001
2011.00,-0.0002
1998.00,0.0002
1985.00,0.0010
1972.00,-0.0002
1959.00,0.0001
1946.00,0.0010
1933.00,0.0003
1920.00,0.0003
1907.00,0.0001
1894.00,0.0005
1881.00,0.0011
1868.00,0.0013
1855.00,0.0006
1842.00,0.0002
1829.00,0.0006
1816.00,0.0008
1803.00,0.0017
1790.00,0.0012
1777.00,0.0010
1764.00,0.0012
1751.00,0.0016
1738.00,0.0017
1725.00,0.0015
1712.00,0.0015
1699.00,0.0023
1686.00,0.0043
1673.00,0.0049
1660.00,0.0043
1647.00,0.0029
1634.00,0.0018
1621.00,0.0017
1608.00,0.0045
1595.00,0.0061
1582.00,0.0048
1569.00,0.0016
1556.00,0.0015
1543.00,0.0023
1530.00,0.0017
1517.00,0.0017
1504.00,0.0029
1491.00,0.0279
1478.00,0.0037
1465.00,0.0039
1452.00,0.0300
1439.00,0.0122
1426.00,0.0048
1413.00,0.0032
1400.00,0.0028
1387.00,0.0044
1374.00,0.0069
1361.00,0.0065
1348.00,0.0058
1335.00,0.0053
1322.00,0.0059
1309.00,0.0060
1296.00,0.0055
1283.00,0.0054
1270.00,0.0043
1257.00,0.0033
1244.00,0.0035
1231.00,0.0034
1218.00,0.0036
1205.00,0.0043
1192.00,0.0054
1179.00,0.0068
1166.00,0.0043
1153.00,0.0072
1140.00,0.0034
1127.00,0.0034
1114.00,0.0044
1101.00,0.0045
1088.00,0.0055
1075.00,0.0088
1062.00,0.0089
1049.00,0.0058
1036.00,0.0078
1023.00,0.0137
1010.00,0.0075
997.00,0.0062
984.00,0.0070
971.00,0.0069
958.00,0.0066
945.00,0.0066
932.00,0.0049
919.00,0.0056
906.00,0.0129
893.00,0.0049
880.00,0.0036
867.00,0.0032
854.00,0.0036
841.00,0.0067
828.00,0.0033
815.00,0.0032
802.00,0.0035
789.00,0.0066
776.00,0.0164
763.00,0.0428
750.00,0.0551
737.00,0.0236
724.00,0.0066
711.00,0.0150
698.00,0.1526
685.00,0.0581
672.00,0.0258
659.00,0.0155
646.00,0.0096
633.00,0.0106
620.00,0.0125
607.00,0.0097
594.00,0.0109
581.00,0.0143
568.00,0.0240
555.00,0.0343
542.00,0.0542
529.00,0.0398
516.00,0.0199
503.00,0.0137
490.00,0.0107
477.00,0.0095
464.00,0.0079
451.00,0.0086
438.00,0.0072
425.00,0.0059
412.00,0.0055
400.00,0.0072