File: FTIR/Mary/Jul1/2025_07_01_Polystyrene_Std_MEL_scan2.csv
Created as New Dataset,Sample 752 By YargerLab Date Sunday, June 29 2025
cm-1,A
4000.00,0.0008
3987.00,0.0008
3974.00,0.0009
3961.00,0.0009
3948.00,0.0012
3935.00,0.0011
3922.00,0.0010
3909.00,0.0009
3896.00,0.0011
3883.00,0.0012
3870.00,0.0015
3857.00,0.0010
3844.00,0.0012
3831.00,0.0012
3818.00,0.0013
3805.00,0.0012
3792.00,0.0010
3779.00,0.0010
3766.00,0.0012
3753.00,0.0017
3740.00,0.0020
3727.00,0.0017
3714.00,0.0013
3701.00,0.0010
3688.00,0.0011
3675.00,0.0004
3662.00,-0.0007
3649.00,0.0003
3636.00,0.0001
3623.00,0.0014
3610.00,0.0019
3597.00,0.0014
3584.00,0.0015
3571.00,0.0014
3558.00,0.0013
3545.00,0.0016
3532.00,0.0014
3519.00,0.0014
3506.00,0.0016
3493.00,0.0015
3480.00,0.0016
3467.00,0.0016
3454.00,0.0015
3441.00,0.0016
3428.00,0.0016
3415.00,0.0017
3402.00,0.0017
3389.00,0.0017
3376.00,0.0017
3363.00,0.0017
3350.00,0.0017
3337.00,0.0017
3324.00,0.0017
3311.00,0.0018
3298.00,0.0018
3285.00,0.0018
3272.00,0.0017
3259.00,0.0017
3246.00,0.0017
3233.00,0.0015
3220.00,0.0015
3207.00,0.0015
3194.00,0.0014
3181.00,0.0014
3168.00,0.0015
3155.00,0.0015
3142.00,0.0015
3129.00,0.0014
3116.00,0.0017
3103.00,0.0031
3090.00,0.0039
3077.00,0.0056
3064.00,0.0077
3051.00,0.0059
3038.00,0.0062
3025.00,0.0168
3012.00,0.0032
2999.00,-0.0029
2986.00,-0.0094
2973.00,-0.0115
2960.00,-0.0054
2947.00,0.0010
2934.00,0.0092
2921.00,0.0151
2908.00,0.0105
2895.00,0.0039
2882.00,0.0011
2869.00,0.0018
2856.00,0.0054
2843.00,0.0063
2830.00,0.0020
2817.00,0.0015
2804.00,0.0014
2791.00,0.0013
2778.00,0.0013
2765.00,0.0012
2752.00,0.0012
2739.00,0.0012
2726.00,0.0013
2713.00,0.0013
2700.00,0.0014
2687.00,0.0013
2674.00,0.0012
2661.00,0.0014
2648.00,0.0015
2635.00,0.0016
2622.00,0.0015
2609.00,0.0015
2596.00,0.0014
2583.00,0.0015
2570.00,0.0013
2557.00,0.0013
2544.00,0.0013
2531.00,0.0012
2518.00,0.0012
2505.00,0.0012
2492.00,0.0012
2479.00,0.0011
2466.00,0.0011
2453.00,0.0012
2440.00,0.0010
2427.00,0.0010
2414.00,0.0010
2401.00,0.0009
2388.00,0.0008
2375.00,0.0008
2362.00,0.0009
2349.00,0.0011
2336.00,0.0013
2323.00,0.0018
2310.00,0.0015
2297.00,0.0015
2284.00,0.0017
2271.00,0.0014
2258.00,0.0015
2245.00,0.0014
2232.00,0.0013
2219.00,0.0011
2206.00,0.0011
2193.00,0.0011
2180.00,0.0007
2167.00,0.0018
2154.00,-0.0004
2141.00,0.0001
2128.00,0.0001
2115.00,0.0010
2102.00,0.0007
2089.00,0.0008
2076.00,0.0009
2063.00,0.0007
2050.00,0.0014
2037.00,0.0009
2024.00,0.0003
2011.00,0.0008
1998.00,0.0007
1985.00,0.0012
1972.00,0.0005
1959.00,0.0012
1946.00,0.0024
1933.00,0.0017
1920.00,0.0011
1907.00,0.0008
1894.00,0.0013
1881.00,0.0022
1868.00,0.0026
1855.00,0.0013
1842.00,0.0012
1829.00,0.0011
1816.00,0.0018
1803.00,0.0030
1790.00,0.0021
1777.00,0.0016
1764.00,0.0017
1751.00,0.0035
1738.00,0.0036
1725.00,0.0028
1712.00,0.0025
1699.00,0.0029
1686.00,0.0030
1673.00,0.0036
1660.00,0.0037
1647.00,0.0036
1634.00,0.0034
1621.00,0.0034
1608.00,0.0077
1595.00,0.0099
1582.00,0.0079
1569.00,0.0031
1556.00,0.0036
1543.00,0.0047
1530.00,0.0037
1517.00,0.0036
1504.00,0.0050
1491.00,0.0406
1478.00,0.0048
1465.00,0.0042
1452.00,0.0434
1439.00,0.0160
1426.00,0.0048
1413.00,0.0027
1400.00,0.0001
1387.00,0.0003
1374.00,0.0047
1361.00,0.0066
1348.00,0.0066
1335.00,0.0063
1322.00,0.0074
1309.00,0.0078
1296.00,0.0063
1283.00,0.0054
1270.00,0.0029
1257.00,0.0014
1244.00,0.0019
1231.00,0.0027
1218.00,0.0042
1205.00,0.0057
1192.00,0.0066
1179.00,0.0068
1166.00,0.0012
1153.00,0.0040
1140.00,-0.0002
1127.00,0.0009
1114.00,0.0037
1101.00,0.0040
1088.00,0.0039
1075.00,0.0078
1062.00,0.0089
1049.00,0.0070
1036.00,0.0111
1023.00,0.0189
1010.00,0.0105
997.00,0.0085
984.00,0.0091
971.00,0.0055
958.00,0.0034
945.00,0.0036
932.00,0.0041
919.00,0.0069
906.00,0.0172
893.00,0.0066
880.00,0.0049
867.00,0.0044
854.00,0.0049
841.00,0.0088
828.00,0.0036
815.00,0.0032
802.00,0.0045
789.00,0.0090
776.00,0.0219
763.00,0.0565
750.00,0.0733
737.00,0.0316
724.00,0.0090
711.00,0.0198
698.00,0.1964
685.00,0.0736
672.00,0.0329
659.00,0.0198
646.00,0.0124
633.00,0.0137
620.00,0.0163
607.00,0.0127
594.00,0.0143
581.00,0.0183
568.00,0.0303
555.00,0.0428
542.00,0.0696
529.00,0.0505
516.00,0.0259
503.00,0.0175
490.00,0.0130
477.00,0.0108
464.00,0.0107
451.00,0.0084
438.00,0.0087
425.00,0.0086
412.00,0.0062
400.00,0.0096