File: FTIR/Mary/Jul1/2025_07_01_Polystyrene_Std_MEL_scan3_After.csv
Created as New Dataset,Sample 759 By YargerLab Date Tuesday, July 01 2025
cm-1,A
4000.00,0.0007
3987.00,0.0007
3974.00,0.0008
3961.00,0.0008
3948.00,0.0009
3935.00,0.0009
3922.00,0.0008
3909.00,0.0007
3896.00,0.0010
3883.00,0.0011
3870.00,0.0013
3857.00,0.0008
3844.00,0.0010
3831.00,0.0011
3818.00,0.0012
3805.00,0.0010
3792.00,0.0008
3779.00,0.0008
3766.00,0.0010
3753.00,0.0015
3740.00,0.0017
3727.00,0.0014
3714.00,0.0012
3701.00,0.0008
3688.00,0.0008
3675.00,0.0002
3662.00,-0.0008
3649.00,0.0003
3636.00,0.0001
3623.00,0.0013
3610.00,0.0018
3597.00,0.0015
3584.00,0.0017
3571.00,0.0017
3558.00,0.0017
3545.00,0.0021
3532.00,0.0020
3519.00,0.0022
3506.00,0.0024
3493.00,0.0025
3480.00,0.0026
3467.00,0.0028
3454.00,0.0030
3441.00,0.0031
3428.00,0.0034
3415.00,0.0035
3402.00,0.0037
3389.00,0.0038
3376.00,0.0039
3363.00,0.0041
3350.00,0.0043
3337.00,0.0043
3324.00,0.0042
3311.00,0.0042
3298.00,0.0042
3285.00,0.0041
3272.00,0.0040
3259.00,0.0038
3246.00,0.0036
3233.00,0.0032
3220.00,0.0031
3207.00,0.0029
3194.00,0.0027
3181.00,0.0026
3168.00,0.0024
3155.00,0.0024
3142.00,0.0023
3129.00,0.0022
3116.00,0.0024
3103.00,0.0033
3090.00,0.0039
3077.00,0.0053
3064.00,0.0068
3051.00,0.0053
3038.00,0.0054
3025.00,0.0140
3012.00,0.0028
2999.00,-0.0028
2986.00,-0.0085
2973.00,-0.0104
2960.00,-0.0048
2947.00,0.0009
2934.00,0.0076
2921.00,0.0123
2908.00,0.0089
2895.00,0.0036
2882.00,0.0013
2869.00,0.0021
2856.00,0.0048
2843.00,0.0056
2830.00,0.0021
2817.00,0.0017
2804.00,0.0016
2791.00,0.0015
2778.00,0.0015
2765.00,0.0014
2752.00,0.0014
2739.00,0.0013
2726.00,0.0014
2713.00,0.0014
2700.00,0.0014
2687.00,0.0013
2674.00,0.0013
2661.00,0.0014
2648.00,0.0015
2635.00,0.0016
2622.00,0.0015
2609.00,0.0015
2596.00,0.0015
2583.00,0.0015
2570.00,0.0013
2557.00,0.0013
2544.00,0.0013
2531.00,0.0012
2518.00,0.0011
2505.00,0.0012
2492.00,0.0011
2479.00,0.0010
2466.00,0.0011
2453.00,0.0011
2440.00,0.0010
2427.00,0.0009
2414.00,0.0009
2401.00,0.0009
2388.00,0.0008
2375.00,0.0006
2362.00,0.0009
2349.00,0.0010
2336.00,0.0011
2323.00,0.0016
2310.00,0.0013
2297.00,0.0013
2284.00,0.0016
2271.00,0.0013
2258.00,0.0013
2245.00,0.0014
2232.00,0.0012
2219.00,0.0010
2206.00,0.0010
2193.00,0.0012
2180.00,0.0009
2167.00,0.0018
2154.00,-0.0005
2141.00,-0.0000
2128.00,-0.0000
2115.00,0.0009
2102.00,0.0006
2089.00,0.0008
2076.00,0.0009
2063.00,0.0006
2050.00,0.0013
2037.00,0.0009
2024.00,0.0005
2011.00,0.0007
1998.00,0.0005
1985.00,0.0012
1972.00,0.0003
1959.00,0.0008
1946.00,0.0019
1933.00,0.0012
1920.00,0.0009
1907.00,0.0006
1894.00,0.0011
1881.00,0.0017
1868.00,0.0020
1855.00,0.0011
1842.00,0.0009
1829.00,0.0009
1816.00,0.0015
1803.00,0.0024
1790.00,0.0017
1777.00,0.0014
1764.00,0.0015
1751.00,0.0029
1738.00,0.0029
1725.00,0.0026
1712.00,0.0025
1699.00,0.0029
1686.00,0.0032
1673.00,0.0041
1660.00,0.0045
1647.00,0.0042
1634.00,0.0038
1621.00,0.0035
1608.00,0.0067
1595.00,0.0084
1582.00,0.0066
1569.00,0.0027
1556.00,0.0030
1543.00,0.0038
1530.00,0.0032
1517.00,0.0034
1504.00,0.0046
1491.00,0.0319
1478.00,0.0043
1465.00,0.0042
1452.00,0.0342
1439.00,0.0139
1426.00,0.0055
1413.00,0.0032
1400.00,0.0005
1387.00,0.0005
1374.00,0.0046
1361.00,0.0063
1348.00,0.0064
1335.00,0.0067
1322.00,0.0077
1309.00,0.0082
1296.00,0.0068
1283.00,0.0061
1270.00,0.0039
1257.00,0.0022
1244.00,0.0026
1231.00,0.0034
1218.00,0.0046
1205.00,0.0060
1192.00,0.0062
1179.00,0.0061
1166.00,0.0027
1153.00,0.0050
1140.00,0.0015
1127.00,0.0032
1114.00,0.0068
1101.00,0.0073
1088.00,0.0067
1075.00,0.0102
1062.00,0.0127
1049.00,0.0121
1036.00,0.0155
1023.00,0.0217
1010.00,0.0147
997.00,0.0129
984.00,0.0129
971.00,0.0081
958.00,0.0054
945.00,0.0051
932.00,0.0054
919.00,0.0077
906.00,0.0156
893.00,0.0077
880.00,0.0059
867.00,0.0055
854.00,0.0056
841.00,0.0085
828.00,0.0044
815.00,0.0043
802.00,0.0052
789.00,0.0088
776.00,0.0185
763.00,0.0435
750.00,0.0556
737.00,0.0260
724.00,0.0097
711.00,0.0180
698.00,0.1376
685.00,0.0568
672.00,0.0280
659.00,0.0190
646.00,0.0136
633.00,0.0149
620.00,0.0172
607.00,0.0148
594.00,0.0161
581.00,0.0191
568.00,0.0282
555.00,0.0384
542.00,0.0568
529.00,0.0431
516.00,0.0247
503.00,0.0180
490.00,0.0149
477.00,0.0135
464.00,0.0126
451.00,0.0109
438.00,0.0119
425.00,0.0092
412.00,0.0092
400.00,0.0107