File: FTIR/Mary/Jul1/2025_07_01_Polystyrene_Std_MEL_scan2_After.csv
Created as New Dataset,Sample 758 By YargerLab Date Tuesday, July 01 2025
cm-1,A
4000.00,0.0004
3987.00,0.0005
3974.00,0.0005
3961.00,0.0005
3948.00,0.0008
3935.00,0.0007
3922.00,0.0007
3909.00,0.0005
3896.00,0.0008
3883.00,0.0008
3870.00,0.0010
3857.00,0.0006
3844.00,0.0009
3831.00,0.0008
3818.00,0.0009
3805.00,0.0007
3792.00,0.0006
3779.00,0.0006
3766.00,0.0009
3753.00,0.0012
3740.00,0.0015
3727.00,0.0012
3714.00,0.0010
3701.00,0.0007
3688.00,0.0006
3675.00,-0.0000
3662.00,-0.0009
3649.00,-0.0000
3636.00,-0.0001
3623.00,0.0011
3610.00,0.0017
3597.00,0.0013
3584.00,0.0014
3571.00,0.0015
3558.00,0.0015
3545.00,0.0019
3532.00,0.0018
3519.00,0.0019
3506.00,0.0021
3493.00,0.0022
3480.00,0.0024
3467.00,0.0025
3454.00,0.0026
3441.00,0.0028
3428.00,0.0030
3415.00,0.0031
3402.00,0.0033
3389.00,0.0034
3376.00,0.0035
3363.00,0.0037
3350.00,0.0038
3337.00,0.0038
3324.00,0.0037
3311.00,0.0038
3298.00,0.0037
3285.00,0.0037
3272.00,0.0036
3259.00,0.0033
3246.00,0.0032
3233.00,0.0029
3220.00,0.0027
3207.00,0.0025
3194.00,0.0024
3181.00,0.0022
3168.00,0.0021
3155.00,0.0021
3142.00,0.0020
3129.00,0.0019
3116.00,0.0020
3103.00,0.0027
3090.00,0.0031
3077.00,0.0042
3064.00,0.0053
3051.00,0.0042
3038.00,0.0042
3025.00,0.0107
3012.00,0.0019
2999.00,-0.0037
2986.00,-0.0090
2973.00,-0.0109
2960.00,-0.0056
2947.00,-0.0004
2934.00,0.0048
2921.00,0.0084
2908.00,0.0059
2895.00,0.0017
2882.00,-0.0000
2869.00,0.0010
2856.00,0.0033
2843.00,0.0042
2830.00,0.0016
2817.00,0.0013
2804.00,0.0012
2791.00,0.0011
2778.00,0.0011
2765.00,0.0010
2752.00,0.0010
2739.00,0.0011
2726.00,0.0011
2713.00,0.0011
2700.00,0.0011
2687.00,0.0011
2674.00,0.0010
2661.00,0.0011
2648.00,0.0012
2635.00,0.0013
2622.00,0.0012
2609.00,0.0011
2596.00,0.0011
2583.00,0.0012
2570.00,0.0010
2557.00,0.0011
2544.00,0.0010
2531.00,0.0010
2518.00,0.0009
2505.00,0.0009
2492.00,0.0010
2479.00,0.0008
2466.00,0.0009
2453.00,0.0009
2440.00,0.0008
2427.00,0.0008
2414.00,0.0007
2401.00,0.0007
2388.00,0.0007
2375.00,0.0007
2362.00,0.0010
2349.00,0.0010
2336.00,0.0010
2323.00,0.0018
2310.00,0.0014
2297.00,0.0014
2284.00,0.0015
2271.00,0.0011
2258.00,0.0013
2245.00,0.0011
2232.00,0.0009
2219.00,0.0008
2206.00,0.0007
2193.00,0.0008
2180.00,0.0006
2167.00,0.0017
2154.00,-0.0004
2141.00,-0.0002
2128.00,-0.0001
2115.00,0.0007
2102.00,0.0006
2089.00,0.0005
2076.00,0.0007
2063.00,0.0005
2050.00,0.0014
2037.00,0.0010
2024.00,0.0000
2011.00,0.0002
1998.00,0.0001
1985.00,0.0010
1972.00,0.0001
1959.00,0.0004
1946.00,0.0014
1933.00,0.0010
1920.00,0.0008
1907.00,0.0005
1894.00,0.0008
1881.00,0.0014
1868.00,0.0016
1855.00,0.0008
1842.00,0.0008
1829.00,0.0008
1816.00,0.0011
1803.00,0.0018
1790.00,0.0015
1777.00,0.0011
1764.00,0.0011
1751.00,0.0025
1738.00,0.0024
1725.00,0.0021
1712.00,0.0021
1699.00,0.0026
1686.00,0.0028
1673.00,0.0035
1660.00,0.0039
1647.00,0.0038
1634.00,0.0034
1621.00,0.0031
1608.00,0.0056
1595.00,0.0069
1582.00,0.0054
1569.00,0.0023
1556.00,0.0026
1543.00,0.0033
1530.00,0.0027
1517.00,0.0031
1504.00,0.0039
1491.00,0.0257
1478.00,0.0034
1465.00,0.0033
1452.00,0.0275
1439.00,0.0114
1426.00,0.0046
1413.00,0.0025
1400.00,-0.0001
1387.00,-0.0004
1374.00,0.0031
1361.00,0.0050
1348.00,0.0051
1335.00,0.0055
1322.00,0.0065
1309.00,0.0069
1296.00,0.0057
1283.00,0.0051
1270.00,0.0030
1257.00,0.0015
1244.00,0.0020
1231.00,0.0027
1218.00,0.0038
1205.00,0.0051
1192.00,0.0051
1179.00,0.0048
1166.00,0.0017
1153.00,0.0034
1140.00,0.0009
1127.00,0.0025
1114.00,0.0057
1101.00,0.0063
1088.00,0.0056
1075.00,0.0084
1062.00,0.0108
1049.00,0.0107
1036.00,0.0137
1023.00,0.0189
1010.00,0.0130
997.00,0.0115
984.00,0.0115
971.00,0.0070
958.00,0.0042
945.00,0.0040
932.00,0.0047
919.00,0.0068
906.00,0.0134
893.00,0.0069
880.00,0.0054
867.00,0.0050
854.00,0.0050
841.00,0.0074
828.00,0.0040
815.00,0.0038
802.00,0.0047
789.00,0.0077
776.00,0.0159
763.00,0.0369
750.00,0.0471
737.00,0.0222
724.00,0.0086
711.00,0.0156
698.00,0.1168
685.00,0.0493
672.00,0.0246
659.00,0.0167
646.00,0.0120
633.00,0.0130
620.00,0.0153
607.00,0.0131
594.00,0.0142
581.00,0.0167
568.00,0.0248
555.00,0.0337
542.00,0.0491
529.00,0.0377
516.00,0.0220
503.00,0.0166
490.00,0.0136
477.00,0.0117
464.00,0.0113
451.00,0.0107
438.00,0.0112
425.00,0.0090
412.00,0.0074
400.00,0.0091