File: FTIR/Mary/Jul1/2025_07_01_Polystyrene_Std_MEL_scan1.csv
Created as New Dataset,Sample 752 By YargerLab Date Sunday, June 29 2025
cm-1,A
4000.00,0.0010
3987.00,0.0010
3974.00,0.0012
3961.00,0.0010
3948.00,0.0013
3935.00,0.0012
3922.00,0.0012
3909.00,0.0009
3896.00,0.0013
3883.00,0.0014
3870.00,0.0015
3857.00,0.0010
3844.00,0.0013
3831.00,0.0014
3818.00,0.0015
3805.00,0.0012
3792.00,0.0011
3779.00,0.0012
3766.00,0.0015
3753.00,0.0018
3740.00,0.0021
3727.00,0.0019
3714.00,0.0016
3701.00,0.0012
3688.00,0.0013
3675.00,0.0006
3662.00,-0.0006
3649.00,0.0005
3636.00,0.0002
3623.00,0.0014
3610.00,0.0021
3597.00,0.0016
3584.00,0.0017
3571.00,0.0016
3558.00,0.0014
3545.00,0.0018
3532.00,0.0015
3519.00,0.0016
3506.00,0.0018
3493.00,0.0017
3480.00,0.0017
3467.00,0.0016
3454.00,0.0018
3441.00,0.0017
3428.00,0.0018
3415.00,0.0018
3402.00,0.0018
3389.00,0.0019
3376.00,0.0019
3363.00,0.0019
3350.00,0.0020
3337.00,0.0018
3324.00,0.0019
3311.00,0.0019
3298.00,0.0020
3285.00,0.0020
3272.00,0.0019
3259.00,0.0018
3246.00,0.0018
3233.00,0.0017
3220.00,0.0016
3207.00,0.0016
3194.00,0.0015
3181.00,0.0016
3168.00,0.0016
3155.00,0.0017
3142.00,0.0017
3129.00,0.0016
3116.00,0.0019
3103.00,0.0033
3090.00,0.0042
3077.00,0.0061
3064.00,0.0084
3051.00,0.0064
3038.00,0.0067
3025.00,0.0182
3012.00,0.0036
2999.00,-0.0025
2986.00,-0.0091
2973.00,-0.0112
2960.00,-0.0050
2947.00,0.0018
2934.00,0.0105
2921.00,0.0169
2908.00,0.0118
2895.00,0.0048
2882.00,0.0017
2869.00,0.0023
2856.00,0.0061
2843.00,0.0070
2830.00,0.0023
2817.00,0.0018
2804.00,0.0016
2791.00,0.0015
2778.00,0.0015
2765.00,0.0014
2752.00,0.0014
2739.00,0.0015
2726.00,0.0015
2713.00,0.0015
2700.00,0.0016
2687.00,0.0015
2674.00,0.0015
2661.00,0.0016
2648.00,0.0017
2635.00,0.0019
2622.00,0.0018
2609.00,0.0017
2596.00,0.0017
2583.00,0.0017
2570.00,0.0015
2557.00,0.0015
2544.00,0.0015
2531.00,0.0013
2518.00,0.0013
2505.00,0.0014
2492.00,0.0012
2479.00,0.0013
2466.00,0.0013
2453.00,0.0013
2440.00,0.0012
2427.00,0.0011
2414.00,0.0012
2401.00,0.0010
2388.00,0.0010
2375.00,0.0010
2362.00,0.0011
2349.00,0.0013
2336.00,0.0016
2323.00,0.0021
2310.00,0.0019
2297.00,0.0019
2284.00,0.0021
2271.00,0.0017
2258.00,0.0016
2245.00,0.0014
2232.00,0.0016
2219.00,0.0013
2206.00,0.0011
2193.00,0.0012
2180.00,0.0008
2167.00,0.0018
2154.00,-0.0008
2141.00,-0.0000
2128.00,0.0001
2115.00,0.0010
2102.00,0.0008
2089.00,0.0008
2076.00,0.0010
2063.00,0.0006
2050.00,0.0014
2037.00,0.0010
2024.00,0.0007
2011.00,0.0005
1998.00,0.0003
1985.00,0.0014
1972.00,0.0004
1959.00,0.0014
1946.00,0.0024
1933.00,0.0015
1920.00,0.0011
1907.00,0.0006
1894.00,0.0013
1881.00,0.0023
1868.00,0.0025
1855.00,0.0012
1842.00,0.0012
1829.00,0.0011
1816.00,0.0020
1803.00,0.0031
1790.00,0.0022
1777.00,0.0017
1764.00,0.0018
1751.00,0.0037
1738.00,0.0039
1725.00,0.0031
1712.00,0.0027
1699.00,0.0031
1686.00,0.0032
1673.00,0.0038
1660.00,0.0039
1647.00,0.0037
1634.00,0.0036
1621.00,0.0036
1608.00,0.0083
1595.00,0.0106
1582.00,0.0084
1569.00,0.0032
1556.00,0.0038
1543.00,0.0048
1530.00,0.0039
1517.00,0.0038
1504.00,0.0053
1491.00,0.0434
1478.00,0.0052
1465.00,0.0046
1452.00,0.0467
1439.00,0.0172
1426.00,0.0053
1413.00,0.0031
1400.00,0.0003
1387.00,0.0008
1374.00,0.0055
1361.00,0.0072
1348.00,0.0071
1335.00,0.0068
1322.00,0.0079
1309.00,0.0084
1296.00,0.0068
1283.00,0.0059
1270.00,0.0033
1257.00,0.0017
1244.00,0.0022
1231.00,0.0031
1218.00,0.0045
1205.00,0.0061
1192.00,0.0071
1179.00,0.0075
1166.00,0.0016
1153.00,0.0047
1140.00,0.0001
1127.00,0.0012
1114.00,0.0043
1101.00,0.0044
1088.00,0.0044
1075.00,0.0085
1062.00,0.0095
1049.00,0.0074
1036.00,0.0119
1023.00,0.0200
1010.00,0.0110
997.00,0.0089
984.00,0.0096
971.00,0.0061
958.00,0.0039
945.00,0.0041
932.00,0.0045
919.00,0.0075
906.00,0.0183
893.00,0.0070
880.00,0.0050
867.00,0.0047
854.00,0.0052
841.00,0.0092
828.00,0.0038
815.00,0.0036
802.00,0.0049
789.00,0.0095
776.00,0.0233
763.00,0.0601
750.00,0.0778
737.00,0.0334
724.00,0.0096
711.00,0.0210
698.00,0.2090
685.00,0.0773
672.00,0.0347
659.00,0.0209
646.00,0.0128
633.00,0.0142
620.00,0.0174
607.00,0.0128
594.00,0.0150
581.00,0.0189
568.00,0.0320
555.00,0.0475
542.00,0.0728
529.00,0.0530
516.00,0.0273
503.00,0.0182
490.00,0.0138
477.00,0.0118
464.00,0.0108
451.00,0.0103
438.00,0.0109
425.00,0.0071
412.00,0.0081
400.00,0.0183