File: FTIR/Mary/Jul1/2025_07_01_Polystyrene_Std_MEL_scan1_After.csv
Created as New Dataset,Sample 757 By YargerLab Date Tuesday, July 01 2025
cm-1,A
4000.00,0.0006
3987.00,0.0006
3974.00,0.0007
3961.00,0.0007
3948.00,0.0010
3935.00,0.0008
3922.00,0.0008
3909.00,0.0007
3896.00,0.0009
3883.00,0.0010
3870.00,0.0012
3857.00,0.0008
3844.00,0.0010
3831.00,0.0010
3818.00,0.0012
3805.00,0.0009
3792.00,0.0008
3779.00,0.0008
3766.00,0.0010
3753.00,0.0014
3740.00,0.0017
3727.00,0.0014
3714.00,0.0011
3701.00,0.0008
3688.00,0.0008
3675.00,0.0002
3662.00,-0.0009
3649.00,0.0002
3636.00,-0.0001
3623.00,0.0011
3610.00,0.0016
3597.00,0.0012
3584.00,0.0013
3571.00,0.0012
3558.00,0.0011
3545.00,0.0014
3532.00,0.0013
3519.00,0.0013
3506.00,0.0015
3493.00,0.0014
3480.00,0.0015
3467.00,0.0015
3454.00,0.0015
3441.00,0.0016
3428.00,0.0017
3415.00,0.0018
3402.00,0.0018
3389.00,0.0018
3376.00,0.0019
3363.00,0.0020
3350.00,0.0020
3337.00,0.0019
3324.00,0.0020
3311.00,0.0020
3298.00,0.0020
3285.00,0.0020
3272.00,0.0019
3259.00,0.0018
3246.00,0.0018
3233.00,0.0016
3220.00,0.0016
3207.00,0.0015
3194.00,0.0015
3181.00,0.0014
3168.00,0.0014
3155.00,0.0014
3142.00,0.0015
3129.00,0.0013
3116.00,0.0016
3103.00,0.0026
3090.00,0.0033
3077.00,0.0047
3064.00,0.0065
3051.00,0.0049
3038.00,0.0051
3025.00,0.0140
3012.00,0.0025
2999.00,-0.0031
2986.00,-0.0088
2973.00,-0.0107
2960.00,-0.0051
2947.00,0.0006
2934.00,0.0075
2921.00,0.0123
2908.00,0.0085
2895.00,0.0030
2882.00,0.0007
2869.00,0.0014
2856.00,0.0045
2843.00,0.0053
2830.00,0.0017
2817.00,0.0013
2804.00,0.0013
2791.00,0.0012
2778.00,0.0011
2765.00,0.0010
2752.00,0.0011
2739.00,0.0011
2726.00,0.0011
2713.00,0.0012
2700.00,0.0012
2687.00,0.0011
2674.00,0.0011
2661.00,0.0012
2648.00,0.0013
2635.00,0.0014
2622.00,0.0013
2609.00,0.0013
2596.00,0.0013
2583.00,0.0013
2570.00,0.0010
2557.00,0.0011
2544.00,0.0011
2531.00,0.0010
2518.00,0.0009
2505.00,0.0010
2492.00,0.0010
2479.00,0.0009
2466.00,0.0009
2453.00,0.0011
2440.00,0.0009
2427.00,0.0009
2414.00,0.0008
2401.00,0.0007
2388.00,0.0007
2375.00,0.0007
2362.00,0.0009
2349.00,0.0010
2336.00,0.0011
2323.00,0.0017
2310.00,0.0014
2297.00,0.0013
2284.00,0.0015
2271.00,0.0012
2258.00,0.0012
2245.00,0.0012
2232.00,0.0011
2219.00,0.0009
2206.00,0.0009
2193.00,0.0010
2180.00,0.0009
2167.00,0.0017
2154.00,-0.0006
2141.00,-0.0001
2128.00,-0.0000
2115.00,0.0007
2102.00,0.0006
2089.00,0.0007
2076.00,0.0008
2063.00,0.0008
2050.00,0.0012
2037.00,0.0007
2024.00,0.0002
2011.00,0.0003
1998.00,0.0005
1985.00,0.0011
1972.00,0.0004
1959.00,0.0009
1946.00,0.0021
1933.00,0.0013
1920.00,0.0010
1907.00,0.0007
1894.00,0.0011
1881.00,0.0019
1868.00,0.0022
1855.00,0.0010
1842.00,0.0009
1829.00,0.0009
1816.00,0.0015
1803.00,0.0025
1790.00,0.0017
1777.00,0.0014
1764.00,0.0014
1751.00,0.0029
1738.00,0.0030
1725.00,0.0025
1712.00,0.0023
1699.00,0.0026
1686.00,0.0027
1673.00,0.0033
1660.00,0.0035
1647.00,0.0030
1634.00,0.0027
1621.00,0.0026
1608.00,0.0063
1595.00,0.0080
1582.00,0.0062
1569.00,0.0021
1556.00,0.0023
1543.00,0.0032
1530.00,0.0025
1517.00,0.0026
1504.00,0.0039
1491.00,0.0341
1478.00,0.0038
1465.00,0.0034
1452.00,0.0372
1439.00,0.0139
1426.00,0.0044
1413.00,0.0020
1400.00,-0.0005
1387.00,-0.0003
1374.00,0.0038
1361.00,0.0055
1348.00,0.0056
1335.00,0.0056
1322.00,0.0066
1309.00,0.0071
1296.00,0.0059
1283.00,0.0051
1270.00,0.0026
1257.00,0.0010
1244.00,0.0016
1231.00,0.0024
1218.00,0.0036
1205.00,0.0051
1192.00,0.0058
1179.00,0.0058
1166.00,0.0012
1153.00,0.0037
1140.00,-0.0002
1127.00,0.0009
1114.00,0.0037
1101.00,0.0041
1088.00,0.0039
1075.00,0.0075
1062.00,0.0088
1049.00,0.0077
1036.00,0.0111
1023.00,0.0181
1010.00,0.0106
997.00,0.0090
984.00,0.0095
971.00,0.0060
958.00,0.0038
945.00,0.0039
932.00,0.0043
919.00,0.0068
906.00,0.0158
893.00,0.0066
880.00,0.0049
867.00,0.0043
854.00,0.0047
841.00,0.0080
828.00,0.0034
815.00,0.0032
802.00,0.0041
789.00,0.0082
776.00,0.0194
763.00,0.0492
750.00,0.0631
737.00,0.0274
724.00,0.0083
711.00,0.0177
698.00,0.1671
685.00,0.0636
672.00,0.0289
659.00,0.0178
646.00,0.0114
633.00,0.0125
620.00,0.0150
607.00,0.0121
594.00,0.0132
581.00,0.0168
568.00,0.0272
555.00,0.0390
542.00,0.0611
529.00,0.0445
516.00,0.0230
503.00,0.0159
490.00,0.0121
477.00,0.0102
464.00,0.0093
451.00,0.0077
438.00,0.0084
425.00,0.0071
412.00,0.0059
400.00,0.0068