File: FTIR/Mary/Jul1/2025_07_01_Polystyrene_Std_MEL_scan3.csv
Created as New Dataset,Sample 753 By YargerLab Date Tuesday, July 01 2025
cm-1,A
4000.00,0.0008
3987.00,0.0008
3974.00,0.0009
3961.00,0.0009
3948.00,0.0011
3935.00,0.0011
3922.00,0.0010
3909.00,0.0008
3896.00,0.0011
3883.00,0.0012
3870.00,0.0014
3857.00,0.0009
3844.00,0.0012
3831.00,0.0012
3818.00,0.0012
3805.00,0.0011
3792.00,0.0008
3779.00,0.0009
3766.00,0.0012
3753.00,0.0016
3740.00,0.0019
3727.00,0.0016
3714.00,0.0013
3701.00,0.0009
3688.00,0.0009
3675.00,0.0002
3662.00,-0.0008
3649.00,0.0001
3636.00,-0.0000
3623.00,0.0013
3610.00,0.0018
3597.00,0.0014
3584.00,0.0015
3571.00,0.0015
3558.00,0.0013
3545.00,0.0016
3532.00,0.0014
3519.00,0.0016
3506.00,0.0016
3493.00,0.0016
3480.00,0.0017
3467.00,0.0017
3454.00,0.0017
3441.00,0.0018
3428.00,0.0018
3415.00,0.0019
3402.00,0.0020
3389.00,0.0021
3376.00,0.0021
3363.00,0.0021
3350.00,0.0022
3337.00,0.0023
3324.00,0.0022
3311.00,0.0023
3298.00,0.0022
3285.00,0.0022
3272.00,0.0022
3259.00,0.0021
3246.00,0.0020
3233.00,0.0018
3220.00,0.0018
3207.00,0.0017
3194.00,0.0016
3181.00,0.0015
3168.00,0.0016
3155.00,0.0016
3142.00,0.0016
3129.00,0.0015
3116.00,0.0018
3103.00,0.0029
3090.00,0.0036
3077.00,0.0052
3064.00,0.0069
3051.00,0.0054
3038.00,0.0055
3025.00,0.0148
3012.00,0.0027
2999.00,-0.0034
2986.00,-0.0096
2973.00,-0.0117
2960.00,-0.0058
2947.00,0.0003
2934.00,0.0075
2921.00,0.0127
2908.00,0.0087
2895.00,0.0028
2882.00,0.0004
2869.00,0.0013
2856.00,0.0045
2843.00,0.0054
2830.00,0.0018
2817.00,0.0014
2804.00,0.0013
2791.00,0.0012
2778.00,0.0012
2765.00,0.0011
2752.00,0.0012
2739.00,0.0012
2726.00,0.0012
2713.00,0.0013
2700.00,0.0013
2687.00,0.0012
2674.00,0.0011
2661.00,0.0013
2648.00,0.0014
2635.00,0.0016
2622.00,0.0015
2609.00,0.0014
2596.00,0.0014
2583.00,0.0014
2570.00,0.0012
2557.00,0.0012
2544.00,0.0013
2531.00,0.0012
2518.00,0.0011
2505.00,0.0011
2492.00,0.0012
2479.00,0.0011
2466.00,0.0010
2453.00,0.0012
2440.00,0.0010
2427.00,0.0010
2414.00,0.0009
2401.00,0.0009
2388.00,0.0008
2375.00,0.0007
2362.00,0.0008
2349.00,0.0010
2336.00,0.0011
2323.00,0.0017
2310.00,0.0015
2297.00,0.0014
2284.00,0.0017
2271.00,0.0014
2258.00,0.0014
2245.00,0.0014
2232.00,0.0014
2219.00,0.0010
2206.00,0.0012
2193.00,0.0012
2180.00,0.0007
2167.00,0.0019
2154.00,-0.0005
2141.00,0.0001
2128.00,0.0001
2115.00,0.0010
2102.00,0.0009
2089.00,0.0007
2076.00,0.0010
2063.00,0.0007
2050.00,0.0013
2037.00,0.0012
2024.00,0.0005
2011.00,0.0005
1998.00,0.0007
1985.00,0.0013
1972.00,0.0004
1959.00,0.0011
1946.00,0.0022
1933.00,0.0015
1920.00,0.0011
1907.00,0.0007
1894.00,0.0011
1881.00,0.0019
1868.00,0.0022
1855.00,0.0012
1842.00,0.0010
1829.00,0.0009
1816.00,0.0016
1803.00,0.0025
1790.00,0.0018
1777.00,0.0014
1764.00,0.0015
1751.00,0.0031
1738.00,0.0032
1725.00,0.0026
1712.00,0.0022
1699.00,0.0027
1686.00,0.0027
1673.00,0.0032
1660.00,0.0033
1647.00,0.0032
1634.00,0.0031
1621.00,0.0030
1608.00,0.0067
1595.00,0.0085
1582.00,0.0068
1569.00,0.0027
1556.00,0.0031
1543.00,0.0040
1530.00,0.0031
1517.00,0.0030
1504.00,0.0041
1491.00,0.0344
1478.00,0.0038
1465.00,0.0032
1452.00,0.0364
1439.00,0.0134
1426.00,0.0040
1413.00,0.0020
1400.00,-0.0006
1387.00,-0.0006
1374.00,0.0034
1361.00,0.0053
1348.00,0.0055
1335.00,0.0055
1322.00,0.0065
1309.00,0.0070
1296.00,0.0055
1283.00,0.0048
1270.00,0.0023
1257.00,0.0008
1244.00,0.0013
1231.00,0.0022
1218.00,0.0035
1205.00,0.0049
1192.00,0.0055
1179.00,0.0054
1166.00,0.0007
1153.00,0.0029
1140.00,-0.0007
1127.00,0.0006
1114.00,0.0036
1101.00,0.0037
1088.00,0.0033
1075.00,0.0068
1062.00,0.0084
1049.00,0.0071
1036.00,0.0107
1023.00,0.0174
1010.00,0.0100
997.00,0.0082
984.00,0.0086
971.00,0.0047
958.00,0.0025
945.00,0.0027
932.00,0.0034
919.00,0.0061
906.00,0.0149
893.00,0.0059
880.00,0.0043
867.00,0.0038
854.00,0.0042
841.00,0.0075
828.00,0.0030
815.00,0.0028
802.00,0.0037
789.00,0.0077
776.00,0.0186
763.00,0.0473
750.00,0.0607
737.00,0.0264
724.00,0.0080
711.00,0.0172
698.00,0.1577
685.00,0.0610
672.00,0.0278
659.00,0.0170
646.00,0.0109
633.00,0.0121
620.00,0.0147
607.00,0.0115
594.00,0.0129
581.00,0.0161
568.00,0.0263
555.00,0.0380
542.00,0.0587
529.00,0.0426
516.00,0.0220
503.00,0.0151
490.00,0.0116
477.00,0.0092
464.00,0.0092
451.00,0.0077
438.00,0.0075
425.00,0.0064
412.00,0.0052
400.00,0.0071