File: FTIR/db-LASE IR data/AgNPr-LASE lasered at 65C/Silk AgNPr film 65C 2 8.26.22.dpt
3997.65	-0.00361
3985.3	-0.00179
3972.94	-0.00242
3960.58	-0.00254
3948.22	-0.00390
3935.87	-0.00346
3923.51	-0.00328
3911.15	-0.00270
3898.79	-0.00281
3886.44	-0.00253
3874.08	-0.00263
3861.72	-0.00300
3849.36	-0.00241
3837.01	-0.00331
3824.65	-0.00294
3812.29	-0.00491
3799.93	-0.00372
3787.58	-0.00225
3775.22	-0.00175
3762.86	-0.00312
3750.5	-0.00163
3738.15	0.00010
3725.79	-0.00052
3713.43	-0.00034
3701.07	-0.00082
3688.72	0.00203
3676.36	0.00418
3664	0.00954
3651.64	0.01666
3639.29	0.02417
3626.93	0.03677
3614.57	0.04697
3602.21	0.05688
3589.86	0.06893
3577.5	0.08065
3565.14	0.09701
3552.78	0.10850
3540.43	0.12238
3528.07	0.13604
3515.71	0.14775
3503.35	0.15781
3491	0.16591
3478.64	0.17482
3466.28	0.18110
3453.92	0.18903
3441.57	0.19543
3429.21	0.20341
3416.85	0.21413
3404.49	0.22631
3392.14	0.24019
3379.78	0.25548
3367.42	0.27127
3355.06	0.29112
3342.71	0.31262
3330.35	0.34012
3317.99	0.37069
3305.63	0.40525
3293.28	0.43942
3280.92	0.45951
3268.56	0.45232
3256.2	0.42177
3243.85	0.38993
3231.49	0.36111
3219.13	0.33471
3206.77	0.30765
3194.42	0.27967
3182.06	0.25086
3169.7	0.22230
3157.34	0.19689
3144.99	0.17785
3132.63	0.16505
3120.27	0.16043
3107.91	0.16302
3095.56	0.16920
3083.2	0.17981
3070.84	0.18113
3058.48	0.17299
3046.13	0.15527
3033.77	0.13484
3021.41	0.11874
3009.05	0.10784
2996.7	0.10968
2984.34	0.11959
2971.98	0.11757
2959.62	0.11058
2947.27	0.11677
2934.91	0.12745
2922.55	0.09167
2910.19	0.06826
2897.84	0.07041
2885.48	0.07008
2873.12	0.07063
2860.76	0.05839
2848.41	0.02771
2836.05	0.04892
2823.69	0.04892
2811.33	0.04717
2798.98	0.04417
2786.62	0.03993
2774.26	0.03576
2761.9	0.03213
2749.55	0.02889
2737.19	0.02598
2724.83	0.02448
2712.47	0.02189
2700.12	0.02087
2687.76	0.02001
2675.4	0.01919
2663.04	0.01877
2650.69	0.01769
2638.33	0.01743
2625.97	0.01684
2613.61	0.01593
2601.26	0.01428
2588.9	0.01379
2576.54	0.01207
2564.18	0.01102
2551.83	0.00983
2539.47	0.00873
2527.11	0.00895
2514.75	0.00945
2502.4	0.00823
2490.04	0.00813
2477.68	0.00757
2465.32	0.00738
2452.97	0.00716
2440.61	0.00699
2428.25	0.00694
2415.89	0.00574
2403.54	0.00577
2391.18	0.00626
2378.82	0.00541
2366.46	0.00340
2354.11	0.00590
2341.75	0.00406
2329.39	0.00533
2317.03	0.00672
2304.68	0.00791
2292.32	0.00715
2279.96	0.00694
2267.6	0.00792
2255.25	0.00566
2242.89	0.00643
2230.53	0.00603
2218.17	0.00584
2205.82	0.00844
2193.46	0.00607
2181.1	0.00735
2168.74	0.00752
2156.39	0.00677
2144.03	0.00612
2131.67	0.00632
2119.31	0.00836
2106.96	0.00905
2094.6	0.00845
2082.24	0.00801
2069.88	0.00725
2057.53	0.00638
2045.17	0.00648
2032.81	0.00513
2020.45	0.00580
2008.1	0.00498
1995.74	0.00638
1983.38	0.00710
1971.02	0.00328
1958.67	0.00485
1946.31	0.00444
1933.95	0.00478
1921.59	0.00413
1909.24	0.00542
1896.88	0.00577
1884.52	0.00630
1872.16	0.00653
1859.81	0.00608
1847.45	0.00647
1835.09	0.00732
1822.73	0.00821
1810.38	0.00874
1798.02	0.00992
1785.66	0.01134
1773.3	0.01274
1760.95	0.01481
1748.59	0.01715
1736.23	0.02030
1723.87	0.02674
1711.52	0.04883
1699.16	0.12366
1686.8	0.19893
1674.44	0.29774
1662.09	0.41330
1649.73	0.52621
1637.37	0.57232
1625.01	0.56188
1612.66	0.43625
1600.3	0.26827
1587.94	0.21058
1575.58	0.23070
1563.23	0.30952
1550.87	0.41555
1538.51	0.50148
1526.15	0.55148
1513.8	0.59143
1501.44	0.48872
1489.08	0.33393
1476.72	0.23884
1464.37	0.22346
1452.01	0.26217
1439.65	0.23635
1427.29	0.19862
1414.94	0.22624
1402.58	0.22285
1390.22	0.21562
1377.86	0.21839
1365.5	0.18765
1353.15	0.15974
1340.79	0.17882
1328.43	0.18195
1316.07	0.16079
1303.72	0.16579
1291.36	0.17472
1279	0.18788
1266.64	0.21917
1254.29	0.24714
1241.93	0.28410
1229.57	0.29538
1217.21	0.23747
1204.86	0.16985
1192.5	0.13219
1180.14	0.13120
1167.78	0.15044
1155.43	0.13893
1143.07	0.11589
1130.71	0.10512
1118.35	0.10267
1106	0.10344
1093.64	0.09836
1081.28	0.11822
1068.92	0.13496
1056.57	0.13698
1044.21	0.11951
1031.85	0.10437
1019.49	0.10675
1007.14	0.10210
994.78	0.07771
982.422	0.06481
970.065	0.06396
957.707	0.06544
945.35	0.06765
932.992	0.06311
920.635	0.05680
908.277	0.05122
895.92	0.04920
883.562	0.04971
871.205	0.05190
858.847	0.06028
846.49	0.06569
834.132	0.07194
821.774	0.07347
809.417	0.07711
797.059	0.08041
784.702	0.08634
772.344	0.09407
759.987	0.10197
747.629	0.11243
735.272	0.12305
722.914	0.13309
710.557	0.14354
698.199	0.15435
685.842	0.16215
673.484	0.16818
661.127	0.17301
648.769	0.17572
636.412	0.17619
624.054	0.17592
611.697	0.17616
599.339	0.17527
586.982	0.17575
574.624	0.18073
562.267	0.18867
549.909	0.20062
537.552	0.20105
525.194	0.19619
512.837	0.19437
500.479	0.19010
488.122	0.18710
475.764	0.17871
463.407	0.17185
451.049	0.16490
438.692	0.15919
426.334	0.15535
413.977	0.15152
401.619	0.14622
399.56	0.14501