File: FTIR/db-LASE IR data/AgNPr-LASE lasered at 65C/Silk AgNPr film 65C 9.22.22.dpt
3997.65	0.00960
3985.3	0.00864
3972.94	0.00966
3960.58	0.00791
3948.22	0.00890
3935.87	0.00775
3923.51	0.00957
3911.15	0.00839
3898.79	0.00897
3886.44	0.00906
3874.08	0.00870
3861.72	0.00839
3849.36	0.00863
3837.01	0.00644
3824.65	0.00786
3812.29	0.00737
3799.93	0.00685
3787.58	0.00784
3775.22	0.00851
3762.86	0.00726
3750.5	0.00837
3738.15	0.00885
3725.79	0.00885
3713.43	0.00869
3701.07	0.00926
3688.72	0.01199
3676.36	0.01436
3664	0.01503
3651.64	0.01994
3639.29	0.02486
3626.93	0.03141
3614.57	0.03924
3602.21	0.04437
3589.86	0.05242
3577.5	0.06147
3565.14	0.07210
3552.78	0.07902
3540.43	0.08793
3528.07	0.09644
3515.71	0.10339
3503.35	0.11028
3491	0.11669
3478.64	0.12201
3466.28	0.12555
3453.92	0.13024
3441.57	0.13472
3429.21	0.14161
3416.85	0.15023
3404.49	0.16002
3392.14	0.17101
3379.78	0.18073
3367.42	0.19387
3355.06	0.20895
3342.71	0.22416
3330.35	0.24282
3317.99	0.26053
3305.63	0.27832
3293.28	0.29322
3280.92	0.29896
3268.56	0.29307
3256.2	0.27945
3243.85	0.26019
3231.49	0.24360
3219.13	0.22580
3206.77	0.20938
3194.42	0.19066
3182.06	0.17114
3169.7	0.15287
3157.34	0.13649
3144.99	0.12340
3132.63	0.11558
3120.27	0.11291
3107.91	0.11457
3095.56	0.11950
3083.2	0.12606
3070.84	0.12813
3058.48	0.12317
3046.13	0.11173
3033.77	0.09807
3021.41	0.08599
3009.05	0.07988
2996.7	0.08144
2984.34	0.08786
2971.98	0.08674
2959.62	0.08699
2947.27	0.09083
2934.91	0.10047
2922.55	0.08901
2910.19	0.07137
2897.84	0.06241
2885.48	0.06019
2873.12	0.05834
2860.76	0.05050
2848.41	0.04784
2836.05	0.04353
2823.69	0.04248
2811.33	0.04047
2798.98	0.03772
2786.62	0.03489
2774.26	0.03124
2761.9	0.02854
2749.55	0.02598
2737.19	0.02436
2724.83	0.02302
2712.47	0.02161
2700.12	0.02076
2687.76	0.02003
2675.4	0.01904
2663.04	0.01887
2650.69	0.01808
2638.33	0.01818
2625.97	0.01711
2613.61	0.01657
2601.26	0.01554
2588.9	0.01435
2576.54	0.01316
2564.18	0.01268
2551.83	0.01129
2539.47	0.01118
2527.11	0.01025
2514.75	0.00997
2502.4	0.01057
2490.04	0.01108
2477.68	0.00964
2465.32	0.00974
2452.97	0.00953
2440.61	0.00959
2428.25	0.00887
2415.89	0.00864
2403.54	0.00814
2391.18	0.00854
2378.82	0.00802
2366.46	0.00685
2354.11	0.00803
2341.75	0.00775
2329.39	0.00912
2317.03	0.00852
2304.68	0.00894
2292.32	0.00824
2279.96	0.00879
2267.6	0.00703
2255.25	0.00627
2242.89	0.00763
2230.53	0.00691
2218.17	0.00722
2205.82	0.00727
2193.46	0.00831
2181.1	0.00692
2168.74	0.00725
2156.39	0.00284
2144.03	0.00612
2131.67	0.00712
2119.31	0.00787
2106.96	0.00843
2094.6	0.00686
2082.24	0.00847
2069.88	0.00825
2057.53	0.00760
2045.17	0.00697
2032.81	0.00425
2020.45	0.00306
2008.1	0.00547
1995.74	0.00536
1983.38	0.00843
1971.02	0.00502
1958.67	0.00417
1946.31	0.00603
1933.95	0.00514
1921.59	0.00655
1909.24	0.00592
1896.88	0.00659
1884.52	0.00644
1872.16	0.00632
1859.81	0.00640
1847.45	0.00687
1835.09	0.00737
1822.73	0.00779
1810.38	0.00851
1798.02	0.00913
1785.66	0.01006
1773.3	0.01172
1760.95	0.01284
1748.59	0.01514
1736.23	0.01741
1723.87	0.02222
1711.52	0.03976
1699.16	0.09575
1686.8	0.16518
1674.44	0.25066
1662.09	0.34930
1649.73	0.44123
1637.37	0.47299
1625.01	0.41953
1612.66	0.29595
1600.3	0.19161
1587.94	0.16069
1575.58	0.18265
1563.23	0.24465
1550.87	0.33104
1538.51	0.39960
1526.15	0.42816
1513.8	0.45881
1501.44	0.39241
1489.08	0.27383
1476.72	0.19359
1464.37	0.18076
1452.01	0.20703
1439.65	0.17855
1427.29	0.15359
1414.94	0.17983
1402.58	0.17561
1390.22	0.17163
1377.86	0.17772
1365.5	0.15015
1353.15	0.12806
1340.79	0.14658
1328.43	0.15191
1316.07	0.13303
1303.72	0.13758
1291.36	0.14659
1279	0.15722
1266.64	0.17972
1254.29	0.20446
1241.93	0.23745
1229.57	0.24725
1217.21	0.20276
1204.86	0.14667
1192.5	0.11408
1180.14	0.11248
1167.78	0.12663
1155.43	0.11783
1143.07	0.10043
1130.71	0.09171
1118.35	0.08998
1106	0.09053
1093.64	0.08520
1081.28	0.09994
1068.92	0.11311
1056.57	0.11711
1044.21	0.10224
1031.85	0.09057
1019.49	0.09437
1007.14	0.09055
994.78	0.06317
982.422	0.05201
970.065	0.05132
957.707	0.05546
945.35	0.05834
932.992	0.05396
920.635	0.04831
908.277	0.04363
895.92	0.04188
883.562	0.04187
871.205	0.04388
858.847	0.05148
846.49	0.05667
834.132	0.06200
821.774	0.06333
809.417	0.06654
797.059	0.07023
784.702	0.07443
772.344	0.08024
759.987	0.08709
747.629	0.09559
735.272	0.10394
722.914	0.11225
710.557	0.12029
698.199	0.12943
685.842	0.13690
673.484	0.14343
661.127	0.14854
648.769	0.15097
636.412	0.15122
624.054	0.15121
611.697	0.15116
599.339	0.15222
586.982	0.15550
574.624	0.16105
562.267	0.16877
549.909	0.17745
537.552	0.17922
525.194	0.17761
512.837	0.17582
500.479	0.17352
488.122	0.16982
475.764	0.16414
463.407	0.15725
451.049	0.15075
438.692	0.14451
426.334	0.13993
413.977	0.13768
401.619	0.13272
399.56	0.13112