File: FTIR/db-LASE IR data/AgNPr-LASE lasered at 65C/Silk AgNPr film 65C 8.26.22.dpt
3997.65	-0.00749
3985.3	-0.00539
3972.94	-0.00517
3960.58	-0.00608
3948.22	-0.00739
3935.87	-0.00712
3923.51	-0.00643
3911.15	-0.00700
3898.79	-0.00562
3886.44	-0.00660
3874.08	-0.00701
3861.72	-0.00475
3849.36	-0.00876
3837.01	-0.00675
3824.65	-0.00875
3812.29	-0.01040
3799.93	-0.00652
3787.58	-0.00529
3775.22	-0.00775
3762.86	-0.00794
3750.5	-0.00271
3738.15	-0.00460
3725.79	-0.00386
3713.43	-0.00407
3701.07	-0.00067
3688.72	0.00117
3676.36	0.00210
3664	0.00221
3651.64	0.00837
3639.29	0.01540
3626.93	0.02631
3614.57	0.03164
3602.21	0.03882
3589.86	0.04817
3577.5	0.05795
3565.14	0.07016
3552.78	0.07914
3540.43	0.08814
3528.07	0.09784
3515.71	0.10638
3503.35	0.11464
3491	0.12174
3478.64	0.12612
3466.28	0.13218
3453.92	0.13732
3441.57	0.14110
3429.21	0.14749
3416.85	0.15471
3404.49	0.16327
3392.14	0.17313
3379.78	0.18298
3367.42	0.19338
3355.06	0.20704
3342.71	0.22070
3330.35	0.23718
3317.99	0.25371
3305.63	0.27013
3293.28	0.28481
3280.92	0.29123
3268.56	0.28944
3256.2	0.27671
3243.85	0.26138
3231.49	0.24687
3219.13	0.23154
3206.77	0.21414
3194.42	0.19770
3182.06	0.17803
3169.7	0.15817
3157.34	0.14058
3144.99	0.12688
3132.63	0.11859
3120.27	0.11355
3107.91	0.11546
3095.56	0.12007
3083.2	0.12692
3070.84	0.12844
3058.48	0.12376
3046.13	0.11138
3033.77	0.09688
3021.41	0.08510
3009.05	0.07710
2996.7	0.07723
2984.34	0.08432
2971.98	0.08060
2959.62	0.07565
2947.27	0.08127
2934.91	0.08794
2922.55	0.05868
2910.19	0.03976
2897.84	0.04556
2885.48	0.04612
2873.12	0.04556
2860.76	0.03749
2848.41	0.01122
2836.05	0.03246
2823.69	0.03342
2811.33	0.03208
2798.98	0.02925
2786.62	0.02657
2774.26	0.02348
2761.9	0.02079
2749.55	0.01826
2737.19	0.01628
2724.83	0.01540
2712.47	0.01351
2700.12	0.01319
2687.76	0.01230
2675.4	0.01196
2663.04	0.01161
2650.69	0.01188
2638.33	0.01104
2625.97	0.01080
2613.61	0.01036
2601.26	0.00865
2588.9	0.00856
2576.54	0.00724
2564.18	0.00635
2551.83	0.00578
2539.47	0.00563
2527.11	0.00552
2514.75	0.00497
2502.4	0.00471
2490.04	0.00487
2477.68	0.00390
2465.32	0.00432
2452.97	0.00418
2440.61	0.00431
2428.25	0.00431
2415.89	0.00291
2403.54	0.00276
2391.18	0.00303
2378.82	0.00577
2366.46	0.01677
2354.11	0.01426
2341.75	0.01168
2329.39	0.01662
2317.03	0.00648
2304.68	0.00512
2292.32	0.00550
2279.96	0.00542
2267.6	0.00579
2255.25	0.00290
2242.89	0.00360
2230.53	0.00452
2218.17	0.00363
2205.82	0.00560
2193.46	0.00437
2181.1	0.00472
2168.74	0.00622
2156.39	0.00340
2144.03	0.00343
2131.67	0.00357
2119.31	0.00502
2106.96	0.00594
2094.6	0.00549
2082.24	0.00529
2069.88	0.00518
2057.53	0.00413
2045.17	0.00393
2032.81	0.00434
2020.45	0.00398
2008.1	0.00434
1995.74	0.00304
1983.38	0.00392
1971.02	0.00266
1958.67	0.00228
1946.31	0.00178
1933.95	0.00280
1921.59	0.00179
1909.24	0.00344
1896.88	0.00297
1884.52	0.00313
1872.16	0.00294
1859.81	0.00387
1847.45	0.00313
1835.09	0.00403
1822.73	0.00456
1810.38	0.00576
1798.02	0.00566
1785.66	0.00698
1773.3	0.00863
1760.95	0.00966
1748.59	0.01121
1736.23	0.01231
1723.87	0.01726
1711.52	0.03145
1699.16	0.07799
1686.8	0.13416
1674.44	0.20074
1662.09	0.27391
1649.73	0.33716
1637.37	0.36583
1625.01	0.33472
1612.66	0.24671
1600.3	0.16396
1587.94	0.13756
1575.58	0.15545
1563.23	0.20318
1550.87	0.26992
1538.51	0.31376
1526.15	0.33518
1513.8	0.35189
1501.44	0.29264
1489.08	0.20679
1476.72	0.14927
1464.37	0.14339
1452.01	0.16466
1439.65	0.14228
1427.29	0.12424
1414.94	0.14644
1402.58	0.14330
1390.22	0.14063
1377.86	0.14439
1365.5	0.12159
1353.15	0.10473
1340.79	0.11992
1328.43	0.12283
1316.07	0.10827
1303.72	0.11267
1291.36	0.11995
1279	0.12821
1266.64	0.14598
1254.29	0.16630
1241.93	0.19113
1229.57	0.19368
1217.21	0.15368
1204.86	0.11149
1192.5	0.08877
1180.14	0.08979
1167.78	0.10082
1155.43	0.09277
1143.07	0.07925
1130.71	0.07343
1118.35	0.07251
1106	0.07317
1093.64	0.06950
1081.28	0.08205
1068.92	0.09222
1056.57	0.09536
1044.21	0.08279
1031.85	0.07302
1019.49	0.07632
1007.14	0.07171
994.78	0.05132
982.422	0.04348
970.065	0.04252
957.707	0.04594
945.35	0.04897
932.992	0.04536
920.635	0.04079
908.277	0.03739
895.92	0.03592
883.562	0.03654
871.205	0.03822
858.847	0.04455
846.49	0.04849
834.132	0.05321
821.774	0.05423
809.417	0.05690
797.059	0.05968
784.702	0.06375
772.344	0.06875
759.987	0.07412
747.629	0.08122
735.272	0.08793
722.914	0.09368
710.557	0.10057
698.199	0.10777
685.842	0.11355
673.484	0.11845
661.127	0.12216
648.769	0.12408
636.412	0.12406
624.054	0.12374
611.697	0.12429
599.339	0.12495
586.982	0.12616
574.624	0.13131
562.267	0.13669
549.909	0.14324
537.552	0.14495
525.194	0.14359
512.837	0.14311
500.479	0.14148
488.122	0.13894
475.764	0.13421
463.407	0.12918
451.049	0.12488
438.692	0.12084
426.334	0.11905
413.977	0.11609
401.619	0.11457
399.56	0.11444