File: FTIR/db-LASE IR data/AgNPr-LASE lasered at 65C/Silk AgNPr film 65C 2 9.22.22.dpt
3997.65	0.00857
3985.3	0.00788
3972.94	0.00813
3960.58	0.00704
3948.22	0.00804
3935.87	0.00822
3923.51	0.00731
3911.15	0.00697
3898.79	0.00808
3886.44	0.00903
3874.08	0.00770
3861.72	0.00783
3849.36	0.00600
3837.01	0.00501
3824.65	0.00759
3812.29	0.00626
3799.93	0.00636
3787.58	0.00732
3775.22	0.00800
3762.86	0.00697
3750.5	0.00749
3738.15	0.00857
3725.79	0.00849
3713.43	0.00770
3701.07	0.00786
3688.72	0.00772
3676.36	0.00875
3664	0.01065
3651.64	0.01448
3639.29	0.01555
3626.93	0.01801
3614.57	0.02463
3602.21	0.02631
3589.86	0.03146
3577.5	0.03586
3565.14	0.04316
3552.78	0.04469
3540.43	0.04982
3528.07	0.05460
3515.71	0.05836
3503.35	0.06273
3491	0.06525
3478.64	0.06868
3466.28	0.07054
3453.92	0.07203
3441.57	0.07390
3429.21	0.07705
3416.85	0.08087
3404.49	0.08499
3392.14	0.08956
3379.78	0.09252
3367.42	0.09834
3355.06	0.10443
3342.71	0.10958
3330.35	0.11728
3317.99	0.12474
3305.63	0.13186
3293.28	0.13691
3280.92	0.13869
3268.56	0.13860
3256.2	0.13548
3243.85	0.12785
3231.49	0.12270
3219.13	0.11485
3206.77	0.10806
3194.42	0.10067
3182.06	0.09162
3169.7	0.08349
3157.34	0.07511
3144.99	0.06853
3132.63	0.06482
3120.27	0.06287
3107.91	0.06339
3095.56	0.06510
3083.2	0.06803
3070.84	0.06923
3058.48	0.06705
3046.13	0.06164
3033.77	0.05466
3021.41	0.04832
3009.05	0.04476
2996.7	0.04508
2984.34	0.04754
2971.98	0.04643
2959.62	0.04620
2947.27	0.04841
2934.91	0.05246
2922.55	0.04775
2910.19	0.03941
2897.84	0.03520
2885.48	0.03354
2873.12	0.03216
2860.76	0.02840
2848.41	0.02778
2836.05	0.02551
2823.69	0.02499
2811.33	0.02390
2798.98	0.02220
2786.62	0.02068
2774.26	0.01879
2761.9	0.01730
2749.55	0.01590
2737.19	0.01535
2724.83	0.01471
2712.47	0.01392
2700.12	0.01328
2687.76	0.01291
2675.4	0.01273
2663.04	0.01287
2650.69	0.01215
2638.33	0.01179
2625.97	0.01173
2613.61	0.01083
2601.26	0.01002
2588.9	0.00984
2576.54	0.00912
2564.18	0.00845
2551.83	0.00808
2539.47	0.00823
2527.11	0.00767
2514.75	0.00759
2502.4	0.00762
2490.04	0.00685
2477.68	0.00721
2465.32	0.00720
2452.97	0.00717
2440.61	0.00694
2428.25	0.00687
2415.89	0.00655
2403.54	0.00689
2391.18	0.00641
2378.82	0.00684
2366.46	0.00653
2354.11	0.00737
2341.75	0.01066
2329.39	0.01754
2317.03	-0.00360
2304.68	0.00356
2292.32	0.00744
2279.96	0.00786
2267.6	0.00568
2255.25	0.00598
2242.89	0.00527
2230.53	0.00584
2218.17	0.00554
2205.82	0.00496
2193.46	0.00804
2181.1	0.00546
2168.74	0.00657
2156.39	0.00162
2144.03	0.00264
2131.67	0.00461
2119.31	0.00485
2106.96	0.00511
2094.6	0.00494
2082.24	0.00536
2069.88	0.00513
2057.53	0.00593
2045.17	0.00521
2032.81	0.00378
2020.45	0.00222
2008.1	0.00250
1995.74	0.00409
1983.38	0.00745
1971.02	0.00463
1958.67	0.00279
1946.31	0.00439
1933.95	0.00347
1921.59	0.00366
1909.24	0.00286
1896.88	0.00388
1884.52	0.00421
1872.16	0.00374
1859.81	0.00406
1847.45	0.00387
1835.09	0.00460
1822.73	0.00427
1810.38	0.00441
1798.02	0.00492
1785.66	0.00581
1773.3	0.00584
1760.95	0.00655
1748.59	0.00757
1736.23	0.00842
1723.87	0.01080
1711.52	0.01741
1699.16	0.04018
1686.8	0.06918
1674.44	0.10217
1662.09	0.13665
1649.73	0.16553
1637.37	0.17695
1625.01	0.16289
1612.66	0.12308
1600.3	0.08533
1587.94	0.07314
1575.58	0.08215
1563.23	0.10614
1550.87	0.13564
1538.51	0.15640
1526.15	0.16470
1513.8	0.17223
1501.44	0.14874
1489.08	0.10844
1476.72	0.08081
1464.37	0.07752
1452.01	0.08753
1439.65	0.07560
1427.29	0.06650
1414.94	0.07783
1402.58	0.07612
1390.22	0.07495
1377.86	0.07713
1365.5	0.06581
1353.15	0.05691
1340.79	0.06460
1328.43	0.06608
1316.07	0.05875
1303.72	0.06102
1291.36	0.06501
1279	0.06917
1266.64	0.07797
1254.29	0.08824
1241.93	0.10059
1229.57	0.10272
1217.21	0.08361
1204.86	0.06226
1192.5	0.05015
1180.14	0.05056
1167.78	0.05622
1155.43	0.05229
1143.07	0.04529
1130.71	0.04236
1118.35	0.04203
1106	0.04244
1093.64	0.04021
1081.28	0.04678
1068.92	0.05208
1056.57	0.05331
1044.21	0.04717
1031.85	0.04249
1019.49	0.04455
1007.14	0.04209
994.78	0.03006
982.422	0.02558
970.065	0.02509
957.707	0.02721
945.35	0.02895
932.992	0.02718
920.635	0.02457
908.277	0.02271
895.92	0.02194
883.562	0.02211
871.205	0.02355
858.847	0.02727
846.49	0.02971
834.132	0.03238
821.774	0.03345
809.417	0.03512
797.059	0.03738
784.702	0.03902
772.344	0.04206
759.987	0.04565
747.629	0.04937
735.272	0.05352
722.914	0.05731
710.557	0.06083
698.199	0.06502
685.842	0.06874
673.484	0.07175
661.127	0.07418
648.769	0.07500
636.412	0.07607
624.054	0.07597
611.697	0.07669
599.339	0.07736
586.982	0.07925
574.624	0.08194
562.267	0.08599
549.909	0.09018
537.552	0.09144
525.194	0.09141
512.837	0.09184
500.479	0.09189
488.122	0.09065
475.764	0.08874
463.407	0.08642
451.049	0.08466
438.692	0.08186
426.334	0.08051
413.977	0.07929
401.619	0.07866
399.56	0.07850