File: DSC/JLY_CBD_Xtal_KY1_Heating2.csv
Filename,JLY_CBD_Xtal_KY1
Instrument name,DSC2A-00468 (192.168.1.101)
Operator,JLY
rundate,1/26/2018
proceduresegments,Data Off ; Equilibrate -50.00 °C; Isothermal 1.0 min; Data On ; Ramp 10.00 °C/min to 110.00 °C; Data Off ; Isothermal 1.0 min; Data On ; Ramp 10.00 °C/min to -50.00 °C; Data Off ; Isothermal 1.0 min; Data On ; Ramp 10.00 °C/min to 110.00 °C; Data Off ; Isothermal 1.0 min; Data On ; Ramp 10.00 °C/min to -50.00 °C; Data Off ; Isothermal 1.0 min; Data On ; Ramp 5.00 °C/min to 110.00 °C; Data Off ; Isothermal 1.0 min; Data On ; Ramp 10.00 °C/min to -50.00 °C; Data Off ; Isothermal 1.0 min; Data On ; Ramp 5.00 °C/min to 110.00 °C; Data Off ; Jump 25.00 °C
[step]
Ramp 10 °C/min to 110.00 °C
Time,Temperature,Heat Flow (Normalized)
min,°C,W/g
34.00,-49.91,-0.017
34.05,-49.90,-0.017
34.11,-49.82,-0.023
34.16,-49.59,-0.006
34.21,-49.22,0.054
34.27,-48.78,0.094
34.32,-48.30,0.120
34.37,-47.79,0.132
34.43,-47.28,0.140
34.48,-46.75,0.144
34.53,-46.23,0.147
34.59,-45.70,0.149
34.64,-45.17,0.150
34.69,-44.64,0.151
34.75,-44.11,0.152
34.80,-43.58,0.153
34.85,-43.05,0.154
34.91,-42.52,0.155
34.96,-41.99,0.156
35.01,-41.46,0.156
35.07,-40.93,0.157
35.12,-40.40,0.157
35.17,-39.86,0.158
35.23,-39.33,0.158
35.28,-38.80,0.159
35.33,-38.27,0.159
35.39,-37.74,0.160
35.44,-37.20,0.160
35.49,-36.67,0.160
35.55,-36.14,0.161
35.60,-35.60,0.161
35.65,-35.07,0.161
35.71,-34.54,0.162
35.76,-34.00,0.162
35.81,-33.47,0.163
35.87,-32.94,0.163
35.92,-32.40,0.164
35.97,-31.87,0.164
36.03,-31.34,0.165
36.08,-30.80,0.165
36.13,-30.27,0.165
36.19,-29.74,0.166
36.24,-29.20,0.166
36.29,-28.67,0.167
36.35,-28.13,0.167
36.40,-27.60,0.168
36.45,-27.07,0.169
36.51,-26.53,0.169
36.56,-26.00,0.170
36.61,-25.47,0.170
36.67,-24.93,0.171
36.72,-24.40,0.172
36.77,-23.87,0.172
36.83,-23.33,0.173
36.88,-22.80,0.173
36.93,-22.26,0.174
36.99,-21.73,0.175
37.04,-21.20,0.176
37.09,-20.66,0.177
37.15,-20.13,0.179
37.20,-19.60,0.180
37.25,-19.06,0.182
37.31,-18.53,0.183
37.36,-18.00,0.185
37.41,-17.46,0.187
37.47,-16.93,0.191
37.52,-16.40,0.194
37.57,-15.86,0.198
37.63,-15.33,0.204
37.68,-14.80,0.210
37.73,-14.27,0.218
37.79,-13.73,0.228
37.84,-13.20,0.239
37.89,-12.67,0.248
37.95,-12.14,0.261
38.00,-11.61,0.270
38.05,-11.08,0.277
38.11,-10.54,0.282
38.16,-10.01,0.283
38.21,-9.48,0.284
38.27,-8.94,0.281
38.32,-8.41,0.275
38.37,-7.87,0.271
38.43,-7.34,0.267
38.48,-6.80,0.265
38.53,-6.27,0.263
38.59,-5.73,0.262
38.64,-5.20,0.261
38.69,-4.67,0.260
38.75,-4.13,0.259
38.80,-3.60,0.259
38.85,-3.06,0.258
38.91,-2.53,0.258
38.96,-2.00,0.258
39.01,-1.46,0.258
39.07,-0.93,0.258
39.12,-0.39,0.258
39.17,0.14,0.258
39.23,0.67,0.258
39.28,1.21,0.259
39.33,1.74,0.259
39.39,2.27,0.259
39.44,2.81,0.259
39.49,3.34,0.259
39.55,3.88,0.260
39.60,4.41,0.260
39.65,4.94,0.260
39.71,5.48,0.261
39.76,6.01,0.261
39.81,6.55,0.261
39.87,7.08,0.261
39.92,7.61,0.262
39.97,8.15,0.262
40.03,8.68,0.262
40.08,9.21,0.263
40.13,9.75,0.263
40.19,10.28,0.263
40.24,10.82,0.264
40.29,11.35,0.264
40.35,11.88,0.264
40.40,12.42,0.264
40.45,12.95,0.265
40.51,13.48,0.265
40.56,14.02,0.265
40.61,14.55,0.266
40.67,15.09,0.266
40.72,15.62,0.266
40.77,16.15,0.267
40.83,16.69,0.267
40.88,17.22,0.267
40.93,17.75,0.268
40.99,18.29,0.268
41.04,18.82,0.269
41.09,19.36,0.269
41.15,19.89,0.269
41.20,20.42,0.270
41.25,20.96,0.270
41.31,21.49,0.271
41.36,22.02,0.271
41.41,22.56,0.271
41.47,23.09,0.272
41.52,23.63,0.272
41.57,24.16,0.273
41.63,24.69,0.273
41.68,25.23,0.274
41.73,25.76,0.274
41.79,26.29,0.274
41.84,26.83,0.275
41.89,27.36,0.275
41.95,27.90,0.276
42.00,28.43,0.276
42.05,28.96,0.277
42.11,29.50,0.277
42.16,30.03,0.277
42.21,30.56,0.278
42.27,31.10,0.278
42.32,31.63,0.278
42.37,32.17,0.279
42.43,32.70,0.279
42.48,33.23,0.279
42.53,33.77,0.279
42.59,34.30,0.280
42.64,34.83,0.280
42.69,35.37,0.280
42.75,35.90,0.281
42.80,36.44,0.281
42.85,36.97,0.281
42.91,37.50,0.282
42.96,38.04,0.282
43.01,38.57,0.282
43.07,39.10,0.282
43.12,39.64,0.283
43.17,40.17,0.283
43.23,40.71,0.283
43.28,41.24,0.284
43.33,41.77,0.284
43.39,42.31,0.284
43.44,42.84,0.284
43.49,43.37,0.284
43.55,43.91,0.285
43.60,44.44,0.285
43.65,44.98,0.285
43.71,45.51,0.285
43.76,46.04,0.286
43.81,46.58,0.286
43.87,47.11,0.286
43.92,47.64,0.286
43.97,48.18,0.287
44.03,48.71,0.287
44.08,49.25,0.287
44.13,49.78,0.288
44.19,50.31,0.288
44.24,50.85,0.288
44.29,51.38,0.288
44.35,51.92,0.289
44.40,52.45,0.289
44.45,52.98,0.289
44.51,53.51,0.290
44.56,54.05,0.290
44.61,54.58,0.290
44.67,55.12,0.291
44.72,55.65,0.291
44.77,56.18,0.291
44.83,56.72,0.292
44.88,57.25,0.292
44.93,57.79,0.292
44.99,58.32,0.293
45.04,58.85,0.293
45.09,59.39,0.293
45.15,59.92,0.294
45.20,60.46,0.294
45.25,60.99,0.294
45.31,61.52,0.295
45.36,62.06,0.295
45.41,62.59,0.295
45.47,63.12,0.296
45.52,63.66,0.296
45.57,64.19,0.296
45.63,64.72,0.297
45.68,65.26,0.297
45.73,65.79,0.298
45.79,66.33,0.298
45.84,66.86,0.298
45.89,67.39,0.299
45.95,67.93,0.299
46.00,68.46,0.299
46.05,69.00,0.300
46.11,69.53,0.300
46.16,70.06,0.301
46.21,70.60,0.301
46.27,71.13,0.301
46.32,71.66,0.302
46.37,72.20,0.302
46.43,72.73,0.302
46.48,73.26,0.302
46.53,73.80,0.303
46.59,74.33,0.303
46.64,74.87,0.303
46.69,75.40,0.303
46.75,75.93,0.304
46.80,76.47,0.304
46.85,77.00,0.304
46.91,77.53,0.305
46.96,78.07,0.305
47.01,78.60,0.305
47.07,79.14,0.305
47.12,79.67,0.306
47.17,80.20,0.306
47.23,80.74,0.306
47.28,81.27,0.306
47.33,81.81,0.307
47.39,82.34,0.307
47.44,82.87,0.307
47.49,83.41,0.307
47.55,83.94,0.308
47.60,84.47,0.308
47.65,85.01,0.308
47.71,85.54,0.308
47.76,86.07,0.308
47.81,86.61,0.309
47.87,87.14,0.309
47.92,87.67,0.309
47.97,88.21,0.309
48.03,88.74,0.309
48.08,89.28,0.310
48.13,89.81,0.310
48.19,90.34,0.310
48.24,90.88,0.310
48.29,91.41,0.310
48.35,91.95,0.311
48.40,92.48,0.311
48.45,93.01,0.311
48.51,93.55,0.311
48.56,94.08,0.311
48.61,94.61,0.312
48.67,95.15,0.312
48.72,95.68,0.312
48.77,96.21,0.312
48.83,96.75,0.312
48.88,97.28,0.312
48.93,97.82,0.313
48.99,98.35,0.313
49.04,98.88,0.313
49.09,99.42,0.313
49.15,99.95,0.314
49.20,100.49,0.314
49.25,101.02,0.314
49.31,101.55,0.315
49.36,102.09,0.315
49.41,102.62,0.315
49.47,103.15,0.315
49.52,103.69,0.315
49.57,104.22,0.315
49.63,104.76,0.316
49.68,105.29,0.316
49.73,105.82,0.316
49.79,106.36,0.316
49.84,106.89,0.316
49.89,107.42,0.317
49.95,107.96,
50.00,,