File: DSC/JLY_CBD_Xtal_KY1_Cooling1.csv
Filename,JLY_CBD_Xtal_KY1
Instrument name,DSC2A-00468 (192.168.1.101)
Operator,JLY
rundate,1/26/2018
proceduresegments,Data Off ; Equilibrate -50.00 °C; Isothermal 1.0 min; Data On ; Ramp 10.00 °C/min to 110.00 °C; Data Off ; Isothermal 1.0 min; Data On ; Ramp 10.00 °C/min to -50.00 °C; Data Off ; Isothermal 1.0 min; Data On ; Ramp 10.00 °C/min to 110.00 °C; Data Off ; Isothermal 1.0 min; Data On ; Ramp 10.00 °C/min to -50.00 °C; Data Off ; Isothermal 1.0 min; Data On ; Ramp 5.00 °C/min to 110.00 °C; Data Off ; Isothermal 1.0 min; Data On ; Ramp 10.00 °C/min to -50.00 °C; Data Off ; Isothermal 1.0 min; Data On ; Ramp 5.00 °C/min to 110.00 °C; Data Off ; Jump 25.00 °C
[step]
Ramp 10 °C/min to -50.00 °C
Time,Temperature,Heat Flow (Normalized)
min,°C,W/g
17.00,110.03,-0.043
17.05,110.02,-0.043
17.11,109.90,-0.029
17.16,109.61,-0.172
17.21,109.19,-0.279
17.27,108.73,-0.336
17.32,108.23,-0.369
17.37,107.72,-0.387
17.43,107.20,-0.395
17.48,106.67,-0.400
17.53,106.14,-0.402
17.59,105.61,-0.403
17.64,105.08,-0.404
17.69,104.55,-0.404
17.75,104.02,-0.405
17.80,103.49,-0.405
17.85,102.96,-0.405
17.91,102.43,-0.405
17.96,101.89,-0.405
18.01,101.36,-0.405
18.07,100.83,-0.404
18.12,100.30,-0.404
18.17,99.77,-0.403
18.23,99.24,-0.403
18.28,98.70,-0.403
18.33,98.17,-0.402
18.39,97.64,-0.402
18.44,97.11,-0.401
18.49,96.57,-0.401
18.55,96.04,-0.400
18.60,95.51,-0.400
18.65,94.98,-0.399
18.71,94.44,-0.399
18.76,93.91,-0.398
18.81,93.38,-0.398
18.87,92.85,-0.397
18.92,92.31,-0.396
18.97,91.78,-0.396
19.03,91.25,-0.395
19.08,90.72,-0.395
19.13,90.18,-0.394
19.19,89.65,-0.394
19.24,89.12,-0.394
19.29,88.59,-0.393
19.35,88.05,-0.392
19.40,87.52,-0.392
19.45,86.99,-0.392
19.51,86.46,-0.391
19.56,85.92,-0.391
19.61,85.39,-0.390
19.67,84.86,-0.390
19.72,84.32,-0.389
19.77,83.79,-0.389
19.83,83.26,-0.389
19.88,82.73,-0.388
19.93,82.19,-0.388
19.99,81.66,-0.387
20.04,81.13,-0.387
20.09,80.59,-0.387
20.15,80.06,-0.386
20.20,79.53,-0.386
20.25,79.00,-0.385
20.31,78.47,-0.385
20.36,77.93,-0.385
20.41,77.40,-0.384
20.47,76.87,-0.384
20.52,76.33,-0.383
20.57,75.80,-0.383
20.63,75.27,-0.382
20.68,74.74,-0.382
20.73,74.20,-0.381
20.79,73.67,-0.381
20.84,73.14,-0.381
20.89,72.60,-0.380
20.95,72.07,-0.380
21.00,71.54,-0.380
21.05,71.01,-0.379
21.11,70.47,-0.379
21.16,69.94,-0.378
21.21,69.41,-0.378
21.27,68.88,-0.377
21.32,68.34,-0.377
21.37,67.81,-0.377
21.43,67.28,-0.376
21.48,66.74,-0.376
21.53,66.21,-0.375
21.59,65.68,-0.375
21.64,65.15,-0.374
21.69,64.61,-0.374
21.75,64.08,-0.373
21.80,63.55,-0.373
21.85,63.02,-0.372
21.91,62.48,-0.372
21.96,61.95,-0.371
22.01,61.42,-0.371
22.07,60.89,-0.370
22.12,60.35,-0.369
22.17,59.82,-0.369
22.23,59.29,-0.368
22.28,58.75,-0.367
22.33,58.22,-0.367
22.39,57.69,-0.367
22.44,57.15,-0.366
22.49,56.62,-0.366
22.55,56.09,-0.365
22.60,55.56,-0.365
22.65,55.03,-0.364
22.71,54.49,-0.364
22.76,53.96,-0.363
22.81,53.43,-0.363
22.87,52.89,-0.362
22.92,52.36,-0.362
22.97,51.83,-0.361
23.03,51.30,-0.361
23.08,50.77,-0.361
23.13,50.23,-0.360
23.19,49.70,-0.360
23.24,49.17,-0.359
23.29,48.63,-0.359
23.35,48.10,-0.359
23.40,47.57,-0.358
23.45,47.04,-0.358
23.51,46.50,-0.358
23.56,45.97,-0.357
23.61,45.44,-0.357
23.67,44.91,-0.356
23.72,44.37,-0.356
23.77,43.84,-0.356
23.83,43.31,-0.355
23.88,42.78,-0.355
23.93,42.24,-0.355
23.99,41.71,-0.354
24.04,41.18,-0.354
24.09,40.65,-0.354
24.15,40.11,-0.353
24.20,39.58,-0.353
24.25,39.05,-0.352
24.31,38.52,-0.352
24.36,37.98,-0.352
24.41,37.45,-0.351
24.47,36.92,-0.351
24.52,36.38,-0.351
24.57,35.85,-0.350
24.63,35.32,-0.350
24.68,34.79,-0.349
24.73,34.25,-0.349
24.79,33.72,-0.349
24.84,33.19,-0.348
24.89,32.66,-0.348
24.95,32.12,-0.348
25.00,31.59,-0.347
25.05,31.06,-0.347
25.11,30.53,-0.347
25.16,29.99,-0.346
25.21,29.46,-0.346
25.27,28.93,-0.345
25.32,28.40,-0.345
25.37,27.86,-0.345
25.43,27.33,-0.344
25.48,26.80,-0.344
25.53,26.27,-0.343
25.59,25.74,-0.342
25.64,25.20,-0.342
25.69,24.67,-0.341
25.75,24.14,-0.340
25.80,23.61,-0.340
25.85,23.07,-0.339
25.91,22.54,-0.339
25.96,22.01,-0.338
26.01,21.48,-0.338
26.07,20.94,-0.337
26.12,20.41,-0.336
26.17,19.88,-0.336
26.23,19.35,-0.335
26.28,18.81,-0.335
26.33,18.28,-0.334
26.39,17.75,-0.334
26.44,17.22,-0.333
26.49,16.69,-0.332
26.55,16.15,-0.332
26.60,15.62,-0.331
26.65,15.09,-0.331
26.71,14.56,-0.330
26.76,14.02,-0.329
26.81,13.49,-0.329
26.87,12.96,-0.328
26.92,12.43,-0.328
26.97,11.89,-0.328
27.03,11.36,-0.327
27.08,10.83,-0.327
27.13,10.30,-0.326
27.19,9.76,-0.326
27.24,9.23,-0.325
27.29,8.70,-0.325
27.35,8.16,-0.324
27.40,7.63,-0.324
27.45,7.10,-0.324
27.51,6.56,-0.324
27.56,6.03,-0.323
27.61,5.50,-0.322
27.67,4.96,-0.322
27.72,4.43,-0.322
27.77,3.89,-0.321
27.83,3.36,-0.321
27.88,2.83,-0.320
27.93,2.29,-0.320
27.99,1.76,-0.319
28.04,1.23,-0.319
28.09,0.69,-0.319
28.15,0.16,-0.318
28.20,-0.37,-0.318
28.25,-0.91,-0.317
28.31,-1.44,-0.317
28.36,-1.98,-0.316
28.41,-2.51,-0.316
28.47,-3.04,-0.316
28.52,-3.58,-0.315
28.57,-4.11,-0.314
28.63,-4.64,-0.314
28.68,-5.18,-0.313
28.73,-5.71,-0.313
28.79,-6.24,-0.312
28.84,-6.78,-0.312
28.89,-7.31,-0.311
28.95,-7.84,-0.310
29.00,-8.38,-0.310
29.05,-8.91,-0.309
29.11,-9.44,-0.308
29.16,-9.98,-0.306
29.21,-10.51,-0.305
29.27,-11.04,-0.304
29.32,-11.58,-0.302
29.37,-12.11,-0.301
29.43,-12.65,-0.298
29.48,-13.18,-0.296
29.53,-13.71,-0.293
29.59,-14.25,-0.289
29.64,-14.78,-0.287
29.69,-15.31,-0.283
29.75,-15.85,-0.280
29.80,-16.38,-0.277
29.85,-16.91,-0.274
29.91,-17.45,-0.270
29.96,-17.98,-0.268
30.01,-18.52,-0.264
30.07,-19.05,-0.262
30.12,-19.58,-0.259
30.17,-20.12,-0.257
30.23,-20.65,-0.254
30.28,-21.19,-0.251
30.33,-21.72,-0.249
30.39,-22.25,-0.246
30.44,-22.79,-0.244
30.49,-23.32,-0.242
30.55,-23.85,-0.240
30.60,-24.39,-0.238
30.65,-24.92,-0.236
30.71,-25.45,-0.234
30.76,-25.99,-0.232
30.81,-26.52,-0.231
30.87,-27.05,-0.230
30.92,-27.59,-0.228
30.97,-28.12,-0.227
31.03,-28.65,-0.226
31.08,-29.19,-0.224
31.13,-29.72,-0.223
31.19,-30.25,-0.222
31.24,-30.79,-0.221
31.29,-31.32,-0.220
31.35,-31.85,-0.218
31.40,-32.39,-0.217
31.45,-32.92,-0.216
31.51,-33.45,-0.215
31.56,-33.98,-0.214
31.61,-34.52,-0.213
31.67,-35.05,-0.212
31.72,-35.58,-0.211
31.77,-36.12,-0.210
31.83,-36.65,-0.209
31.88,-37.18,-0.208
31.93,-37.72,-0.207
31.99,-38.25,-0.206
32.04,-38.78,-0.205
32.09,-39.31,-0.204
32.15,-39.85,-0.203
32.20,-40.38,-0.202
32.25,-40.91,-0.201
32.31,-41.45,-0.201
32.36,-41.98,-0.200
32.41,-42.51,-0.198
32.47,-43.04,-0.198
32.52,-43.58,-0.197
32.57,-44.11,-0.196
32.63,-44.65,-0.195
32.68,-45.18,-0.195
32.73,-45.71,-0.194
32.79,-46.24,-0.193
32.84,-46.78,-0.192
32.89,-47.31,-0.191
32.95,-47.84,
33.00,,