File: DSC/JLY_CBD_Xtal_KY1_Heating1.csv
Filename,JLY_CBD_Xtal_KY1
Instrument name,DSC2A-00468 (192.168.1.101)
Operator,JLY
rundate,1/26/2018
proceduresegments,Data Off ; Equilibrate -50.00 °C; Isothermal 1.0 min; Data On ; Ramp 10.00 °C/min to 110.00 °C; Data Off ; Isothermal 1.0 min; Data On ; Ramp 10.00 °C/min to -50.00 °C; Data Off ; Isothermal 1.0 min; Data On ; Ramp 10.00 °C/min to 110.00 °C; Data Off ; Isothermal 1.0 min; Data On ; Ramp 10.00 °C/min to -50.00 °C; Data Off ; Isothermal 1.0 min; Data On ; Ramp 5.00 °C/min to 110.00 °C; Data Off ; Isothermal 1.0 min; Data On ; Ramp 10.00 °C/min to -50.00 °C; Data Off ; Isothermal 1.0 min; Data On ; Ramp 5.00 °C/min to 110.00 °C; Data Off ; Jump 25.00 °C
[step]
Ramp 10 °C/min to 110.00 °C
Time,Temperature,Heat Flow (Normalized)
min,°C,W/g
0.00,-49.92,-0.013
0.05,-49.91,-0.013
0.11,-49.83,-0.051
0.16,-49.59,-0.059
0.21,-49.22,-0.012
0.27,-48.77,0.044
0.32,-48.29,0.080
0.37,-47.79,0.107
0.43,-47.28,0.125
0.48,-46.76,0.135
0.53,-46.24,0.142
0.59,-45.71,0.148
0.64,-45.18,0.150
0.69,-44.65,0.151
0.75,-44.13,0.153
0.80,-43.60,0.154
0.85,-43.06,0.155
0.91,-42.53,0.157
0.96,-42.00,0.157
1.01,-41.47,0.158
1.07,-40.94,0.164
1.12,-40.41,0.166
1.17,-39.88,0.166
1.23,-39.35,0.165
1.28,-38.81,0.165
1.33,-38.28,0.164
1.39,-37.75,0.164
1.44,-37.21,0.164
1.49,-36.68,0.164
1.55,-36.15,0.164
1.60,-35.61,0.164
1.65,-35.08,0.164
1.71,-34.55,0.164
1.76,-34.01,0.164
1.81,-33.48,0.164
1.87,-32.95,0.164
1.92,-32.41,0.164
1.97,-31.88,0.164
2.03,-31.35,0.165
2.08,-30.81,0.165
2.13,-30.28,0.165
2.19,-29.75,0.165
2.24,-29.21,0.165
2.29,-28.68,0.166
2.35,-28.15,0.166
2.40,-27.61,0.166
2.45,-27.08,0.166
2.51,-26.54,0.167
2.56,-26.01,0.167
2.61,-25.48,0.167
2.67,-24.94,0.167
2.72,-24.41,0.167
2.77,-23.87,0.168
2.83,-23.34,0.168
2.88,-22.81,0.168
2.93,-22.27,0.168
2.99,-21.74,0.168
3.04,-21.21,0.168
3.09,-20.67,0.168
3.15,-20.14,0.169
3.20,-19.60,0.169
3.25,-19.07,0.169
3.31,-18.54,0.169
3.36,-18.00,0.170
3.41,-17.47,0.170
3.47,-16.93,0.170
3.52,-16.40,0.170
3.57,-15.87,0.170
3.63,-15.33,0.171
3.68,-14.80,0.171
3.73,-14.27,0.171
3.79,-13.73,0.171
3.84,-13.20,0.172
3.89,-12.66,0.172
3.95,-12.13,0.172
4.00,-11.60,0.172
4.05,-11.06,0.172
4.11,-10.53,0.172
4.16,-9.99,0.173
4.21,-9.46,0.198
4.27,-8.93,0.194
4.32,-8.40,0.190
4.37,-7.86,0.187
4.43,-7.33,0.185
4.48,-6.79,0.183
4.53,-6.26,0.182
4.59,-5.73,0.180
4.64,-5.19,0.179
4.69,-4.66,0.179
4.75,-4.12,0.178
4.80,-3.59,0.178
4.85,-3.06,0.178
4.91,-2.52,0.178
4.96,-1.99,0.178
5.01,-1.45,0.178
5.07,-0.92,0.178
5.12,-0.39,0.178
5.17,0.15,0.178
5.23,0.68,0.179
5.28,1.22,0.179
5.33,1.75,0.179
5.39,2.28,0.179
5.44,2.82,0.180
5.49,3.35,0.180
5.55,3.88,0.180
5.60,4.42,0.180
5.65,4.95,0.181
5.71,5.48,0.181
5.76,6.02,0.181
5.81,6.55,0.181
5.87,7.09,0.182
5.92,7.62,0.182
5.97,8.16,0.182
6.03,8.69,0.183
6.08,9.22,0.183
6.13,9.76,0.183
6.19,10.29,0.183
6.24,10.82,0.184
6.29,11.36,0.184
6.35,11.89,0.184
6.40,12.43,0.185
6.45,12.96,0.185
6.51,13.49,0.185
6.56,14.03,0.186
6.61,14.56,0.186
6.67,15.09,0.186
6.72,15.63,0.186
6.77,16.16,0.187
6.83,16.69,0.187
6.88,17.23,0.188
6.93,17.76,0.188
6.99,18.30,0.188
7.04,18.83,0.189
7.09,19.36,0.189
7.15,19.90,0.189
7.20,20.43,0.190
7.25,20.96,0.190
7.31,21.50,0.191
7.36,22.03,0.191
7.41,22.57,0.192
7.47,23.10,0.192
7.52,23.63,0.193
7.57,24.17,0.193
7.63,24.70,0.194
7.68,25.23,0.194
7.73,25.77,0.195
7.79,26.30,0.195
7.84,26.84,0.195
7.89,27.37,0.196
7.95,27.90,0.196
8.00,28.44,0.197
8.05,28.97,0.197
8.11,29.50,0.198
8.16,30.04,0.198
8.21,30.57,0.199
8.27,31.11,0.199
8.32,31.64,0.199
8.37,32.17,0.200
8.43,32.71,0.200
8.48,33.24,0.201
8.53,33.77,0.201
8.59,34.31,0.201
8.64,34.84,0.202
8.69,35.37,0.202
8.75,35.91,0.202
8.80,36.44,0.203
8.85,36.98,0.203
8.91,37.51,0.204
8.96,38.04,0.204
9.01,38.58,0.204
9.07,39.11,0.205
9.12,39.64,0.205
9.17,40.18,0.205
9.23,40.71,0.206
9.28,41.25,0.206
9.33,41.78,0.207
9.39,42.31,0.207
9.44,42.85,0.208
9.49,43.38,0.208
9.55,43.92,0.208
9.60,44.45,0.209
9.65,44.98,0.209
9.71,45.52,0.210
9.76,46.05,0.210
9.81,46.58,0.210
9.87,47.12,0.211
9.92,47.65,0.211
9.97,48.18,0.212
10.03,48.72,0.212
10.08,49.25,0.213
10.13,49.78,0.213
10.19,50.32,0.214
10.24,50.85,0.214
10.29,51.39,0.215
10.35,51.92,0.215
10.40,52.45,0.216
10.45,52.99,0.217
10.51,53.52,0.218
10.56,54.05,0.218
10.61,54.59,0.219
10.67,55.12,0.220
10.72,55.66,0.220
10.77,56.19,0.221
10.83,56.72,0.223
10.88,57.26,0.223
10.93,57.79,0.225
10.99,58.32,0.226
11.04,58.86,0.227
11.09,59.39,0.228
11.15,59.92,0.229
11.20,60.46,0.231
11.25,60.99,0.232
11.31,61.52,0.234
11.36,62.06,0.237
11.41,62.59,0.241
11.47,63.12,0.244
11.52,63.66,0.251
11.57,64.19,0.260
11.63,64.72,0.275
11.68,65.25,0.294
11.73,65.78,0.324
11.79,66.31,0.375
11.84,66.83,0.462
11.89,67.34,0.596
11.95,67.84,0.823
12.00,68.33,1.100
12.05,68.80,1.413
12.11,69.27,1.686
12.16,69.75,1.905
12.21,70.22,2.241
12.27,70.70,2.427
12.32,71.18,2.581
12.37,71.67,2.738
12.43,72.19,2.670
12.48,72.76,2.230
12.53,73.37,1.762
12.59,74.04,0.905
12.64,74.70,0.573
12.69,75.30,0.449
12.75,75.88,0.382
12.80,76.43,0.346
12.85,76.98,0.329
12.91,77.52,0.319
12.96,78.05,0.315
13.01,78.59,0.312
13.07,79.13,0.311
13.12,79.66,0.310
13.17,80.19,0.309
13.23,80.73,0.308
13.28,81.26,0.308
13.33,81.79,0.307
13.39,82.33,0.307
13.44,82.86,0.307
13.49,83.40,0.307
13.55,83.93,0.307
13.60,84.46,0.307
13.65,85.00,0.307
13.71,85.53,0.307
13.76,86.06,0.307
13.81,86.60,0.307
13.87,87.13,0.308
13.92,87.67,0.308
13.97,88.20,0.308
14.03,88.73,0.308
14.08,89.27,0.308
14.13,89.80,0.309
14.19,90.33,0.309
14.24,90.87,0.309
14.29,91.40,0.309
14.35,91.94,0.310
14.40,92.47,0.310
14.45,93.00,0.310
14.51,93.54,0.310
14.56,94.07,0.310
14.61,94.60,0.311
14.67,95.14,0.311
14.72,95.67,0.311
14.77,96.20,0.311
14.83,96.74,0.311
14.88,97.27,0.311
14.93,97.81,0.312
14.99,98.34,0.312
15.04,98.87,0.312
15.09,99.41,0.313
15.15,99.94,0.313
15.20,100.47,0.313
15.25,101.01,0.313
15.31,101.54,0.314
15.36,102.08,0.314
15.41,102.61,0.314
15.47,103.14,0.314
15.52,103.68,0.314
15.57,104.21,0.315
15.63,104.74,0.315
15.68,105.28,0.315
15.73,105.81,0.315
15.79,106.34,0.316
15.84,106.88,0.316
15.89,107.41,0.316
15.95,107.94,
16.00,,