File: DSC/JLY_CBD_Xtal_KY1_Cooling2.csv
Filename,JLY_CBD_Xtal_KY1
Instrument name,DSC2A-00468 (192.168.1.101)
Operator,JLY
rundate,1/26/2018
proceduresegments,Data Off ; Equilibrate -50.00 °C; Isothermal 1.0 min; Data On ; Ramp 10.00 °C/min to 110.00 °C; Data Off ; Isothermal 1.0 min; Data On ; Ramp 10.00 °C/min to -50.00 °C; Data Off ; Isothermal 1.0 min; Data On ; Ramp 10.00 °C/min to 110.00 °C; Data Off ; Isothermal 1.0 min; Data On ; Ramp 10.00 °C/min to -50.00 °C; Data Off ; Isothermal 1.0 min; Data On ; Ramp 5.00 °C/min to 110.00 °C; Data Off ; Isothermal 1.0 min; Data On ; Ramp 10.00 °C/min to -50.00 °C; Data Off ; Isothermal 1.0 min; Data On ; Ramp 5.00 °C/min to 110.00 °C; Data Off ; Jump 25.00 °C
[step]
Ramp 10 °C/min to -50.00 °C
Time,Temperature,Heat Flow (Normalized)
min,°C,W/g
51.00,110.03,-0.043
51.05,110.02,-0.043
51.11,109.90,-0.039
51.16,109.61,-0.178
51.21,109.20,-0.284
51.27,108.73,-0.337
51.32,108.23,-0.371
51.37,107.72,-0.389
51.43,107.20,-0.397
51.48,106.67,-0.401
51.53,106.14,-0.402
51.59,105.61,-0.403
51.64,105.08,-0.404
51.69,104.55,-0.405
51.75,104.02,-0.405
51.80,103.49,-0.405
51.85,102.96,-0.405
51.91,102.43,-0.405
51.96,101.89,-0.405
52.01,101.36,-0.405
52.07,100.83,-0.404
52.12,100.30,-0.404
52.17,99.77,-0.403
52.23,99.23,-0.403
52.28,98.70,-0.403
52.33,98.17,-0.402
52.39,97.64,-0.402
52.44,97.11,-0.401
52.49,96.57,-0.401
52.55,96.04,-0.400
52.60,95.51,-0.399
52.65,94.98,-0.399
52.71,94.44,-0.398
52.76,93.91,-0.398
52.81,93.38,-0.397
52.87,92.85,-0.397
52.92,92.31,-0.396
52.97,91.78,-0.396
53.03,91.25,-0.395
53.08,90.72,-0.395
53.13,90.18,-0.394
53.19,89.65,-0.394
53.24,89.12,-0.393
53.29,88.59,-0.393
53.35,88.05,-0.392
53.40,87.52,-0.392
53.45,86.99,-0.391
53.51,86.45,-0.391
53.56,85.92,-0.391
53.61,85.39,-0.390
53.67,84.86,-0.390
53.72,84.32,-0.389
53.77,83.79,-0.389
53.83,83.26,-0.388
53.88,82.73,-0.388
53.93,82.19,-0.388
53.99,81.66,-0.387
54.04,81.13,-0.387
54.09,80.59,-0.386
54.15,80.06,-0.386
54.20,79.53,-0.386
54.25,79.00,-0.385
54.31,78.46,-0.385
54.36,77.93,-0.384
54.41,77.40,-0.384
54.47,76.87,-0.383
54.52,76.33,-0.383
54.57,75.80,-0.383
54.63,75.27,-0.382
54.68,74.74,-0.382
54.73,74.20,-0.381
54.79,73.67,-0.381
54.84,73.14,-0.381
54.89,72.61,-0.380
54.95,72.07,-0.380
55.00,71.54,-0.380
55.05,71.01,-0.379
55.11,70.47,-0.379
55.16,69.94,-0.378
55.21,69.41,-0.378
55.27,68.88,-0.377
55.32,68.34,-0.377
55.37,67.81,-0.377
55.43,67.28,-0.376
55.48,66.74,-0.375
55.53,66.21,-0.375
55.59,65.68,-0.374
55.64,65.15,-0.374
55.69,64.61,-0.373
55.75,64.08,-0.373
55.80,63.55,-0.372
55.85,63.02,-0.372
55.91,62.48,-0.371
55.96,61.95,-0.371
56.01,61.42,-0.370
56.07,60.88,-0.370
56.12,60.35,-0.369
56.17,59.82,-0.369
56.23,59.29,-0.368
56.28,58.75,-0.368
56.33,58.22,-0.367
56.39,57.69,-0.367
56.44,57.16,-0.366
56.49,56.62,-0.366
56.55,56.09,-0.365
56.60,55.56,-0.365
56.65,55.03,-0.364
56.71,54.49,-0.364
56.76,53.96,-0.363
56.81,53.43,-0.363
56.87,52.89,-0.362
56.92,52.36,-0.362
56.97,51.83,-0.361
57.03,51.30,-0.361
57.08,50.77,-0.361
57.13,50.23,-0.360
57.19,49.70,-0.360
57.24,49.17,-0.359
57.29,48.63,-0.359
57.35,48.10,-0.358
57.40,47.57,-0.358
57.45,47.04,-0.358
57.51,46.50,-0.357
57.56,45.97,-0.357
57.61,45.44,-0.356
57.67,44.91,-0.356
57.72,44.37,-0.356
57.77,43.84,-0.355
57.83,43.31,-0.355
57.88,42.78,-0.355
57.93,42.24,-0.354
57.99,41.71,-0.354
58.04,41.18,-0.353
58.09,40.64,-0.353
58.15,40.11,-0.353
58.20,39.58,-0.352
58.25,39.05,-0.352
58.31,38.52,-0.351
58.36,37.98,-0.351
58.41,37.45,-0.351
58.47,36.92,-0.350
58.52,36.39,-0.350
58.57,35.85,-0.350
58.63,35.32,-0.349
58.68,34.79,-0.349
58.73,34.25,-0.349
58.79,33.72,-0.349
58.84,33.19,-0.348
58.89,32.66,-0.348
58.95,32.12,-0.347
59.00,31.59,-0.347
59.05,31.06,-0.346
59.11,30.53,-0.346
59.16,29.99,-0.346
59.21,29.46,-0.345
59.27,28.93,-0.345
59.32,28.40,-0.344
59.37,27.86,-0.344
59.43,27.33,-0.342
59.48,26.80,-0.342
59.53,26.27,-0.342
59.59,25.74,-0.341
59.64,25.20,-0.341
59.69,24.67,-0.340
59.75,24.14,-0.340
59.80,23.60,-0.339
59.85,23.07,-0.338
59.91,22.54,-0.338
59.96,22.01,-0.337
60.01,21.48,-0.337
60.07,20.94,-0.336
60.12,20.41,-0.336
60.17,19.88,-0.335
60.23,19.35,-0.334
60.28,18.81,-0.334
60.33,18.28,-0.333
60.39,17.75,-0.333
60.44,17.22,-0.332
60.49,16.69,-0.332
60.55,16.15,-0.331
60.60,15.62,-0.330
60.65,15.09,-0.330
60.71,14.56,-0.329
60.76,14.03,-0.329
60.81,13.49,-0.328
60.87,12.96,-0.328
60.92,12.43,-0.327
60.97,11.90,-0.327
61.03,11.36,-0.326
61.08,10.83,-0.326
61.13,10.30,-0.325
61.19,9.76,-0.325
61.24,9.23,-0.324
61.29,8.70,-0.324
61.35,8.16,-0.324
61.40,7.63,-0.323
61.45,7.10,-0.323
61.51,6.56,-0.322
61.56,6.03,-0.322
61.61,5.50,-0.321
61.67,4.96,-0.321
61.72,4.43,-0.321
61.77,3.89,-0.320
61.83,3.36,-0.320
61.88,2.83,-0.319
61.93,2.29,-0.319
61.99,1.76,-0.319
62.04,1.23,-0.318
62.09,0.69,-0.318
62.15,0.16,-0.317
62.20,-0.37,-0.317
62.25,-0.91,-0.317
62.31,-1.44,-0.316
62.36,-1.98,-0.316
62.41,-2.51,-0.315
62.47,-3.04,-0.315
62.52,-3.58,-0.314
62.57,-4.11,-0.314
62.63,-4.64,-0.313
62.68,-5.17,-0.313
62.73,-5.71,-0.312
62.79,-6.24,-0.311
62.84,-6.78,-0.311
62.89,-7.31,-0.310
62.95,-7.84,-0.310
63.00,-8.38,-0.308
63.05,-8.91,-0.307
63.11,-9.44,-0.307
63.16,-9.98,-0.306
63.21,-10.51,-0.304
63.27,-11.05,-0.303
63.32,-11.58,-0.301
63.37,-12.11,-0.300
63.43,-12.64,-0.297
63.48,-13.18,-0.295
63.53,-13.71,-0.293
63.59,-14.25,-0.290
63.64,-14.78,-0.286
63.69,-15.31,-0.284
63.75,-15.85,-0.281
63.80,-16.38,-0.278
63.85,-16.92,-0.275
63.91,-17.45,-0.269
63.96,-17.98,-0.267
64.01,-18.52,-0.263
64.07,-19.05,-0.261
64.12,-19.58,-0.259
64.17,-20.12,-0.256
64.23,-20.65,-0.253
64.28,-21.18,-0.251
64.33,-21.72,-0.248
64.39,-22.25,-0.246
64.44,-22.78,-0.244
64.49,-23.32,-0.242
64.55,-23.85,-0.239
64.60,-24.38,-0.237
64.65,-24.92,-0.235
64.71,-25.45,-0.233
64.76,-25.99,-0.232
64.81,-26.52,-0.230
64.87,-27.05,-0.228
64.92,-27.59,-0.227
64.97,-28.12,-0.225
65.03,-28.65,-0.224
65.08,-29.18,-0.222
65.13,-29.72,-0.221
65.19,-30.25,-0.220
65.24,-30.79,-0.219
65.29,-31.32,-0.218
65.35,-31.85,-0.217
65.40,-32.38,-0.216
65.45,-32.92,-0.215
65.51,-33.45,-0.214
65.56,-33.98,-0.212
65.61,-34.52,-0.212
65.67,-35.05,-0.211
65.72,-35.58,-0.210
65.77,-36.12,-0.209
65.83,-36.65,-0.208
65.88,-37.18,-0.207
65.93,-37.71,-0.206
65.99,-38.25,-0.205
66.04,-38.78,-0.204
66.09,-39.31,-0.203
66.15,-39.85,-0.202
66.20,-40.38,-0.201
66.25,-40.91,-0.201
66.31,-41.45,-0.200
66.36,-41.98,-0.199
66.41,-42.51,-0.198
66.47,-43.04,-0.197
66.52,-43.58,-0.196
66.57,-44.11,-0.195
66.63,-44.64,-0.194
66.68,-45.18,-0.193
66.73,-45.71,-0.192
66.79,-46.25,-0.191
66.84,-46.78,-0.189
66.89,-47.31,-0.188
66.95,-47.84,
67.00,,