File: Raman/2022_11_26_Nylon6_532nm_Pol_6mW_750mm_600gv_0wn_iDus_10s_10accum_Pos1.csv
-1054.088,653.000,657.000,648.000,652.000,650.000,662.000,648.000,653.000,653.000,647.000
-1032.397,651.000,651.000,649.000,651.000,651.000,652.000,655.000,656.000,650.000,657.000
-1010.751,653.000,643.000,650.000,651.000,644.000,647.000,650.000,655.000,643.000,648.000
-989.154,646.000,652.000,651.000,652.000,653.000,648.000,650.000,655.000,647.000,648.000
-967.603,652.000,652.000,652.000,654.000,655.000,648.000,653.000,649.000,655.000,651.000
-946.100,657.000,654.000,649.000,662.000,660.000,658.000,651.000,653.000,645.000,650.000
-924.643,652.000,651.000,657.000,655.000,654.000,654.000,654.000,647.000,651.000,651.000
-903.233,654.000,656.000,656.000,656.000,655.000,652.000,657.000,663.000,652.000,651.000
-881.869,661.000,644.000,653.000,652.000,660.000,649.000,649.000,648.000,656.000,656.000
-860.552,651.000,654.000,649.000,658.000,654.000,654.000,653.000,653.000,649.000,653.000
-839.280,651.000,656.000,655.000,660.000,651.000,659.000,656.000,651.000,645.000,654.000
-818.055,655.000,662.000,656.000,645.000,662.000,650.000,654.000,649.000,651.000,655.000
-796.875,655.000,654.000,657.000,657.000,658.000,654.000,648.000,655.000,650.000,656.000
-775.742,656.000,655.000,649.000,659.000,656.000,653.000,654.000,654.000,658.000,656.000
-754.653,659.000,658.000,658.000,653.000,658.000,653.000,654.000,658.000,660.000,649.000
-733.610,653.000,652.000,652.000,649.000,645.000,655.000,656.000,650.000,653.000,650.000
-712.612,655.000,651.000,659.000,654.000,657.000,664.000,655.000,647.000,652.000,659.000
-691.659,647.000,649.000,652.000,652.000,652.000,652.000,658.000,654.000,654.000,650.000
-670.753,648.000,659.000,654.000,656.000,654.000,654.000,655.000,657.000,659.000,659.000
-649.889,659.000,650.000,653.000,650.000,650.000,651.000,655.000,654.000,651.000,655.000
-629.071,661.000,655.000,653.000,656.000,656.000,656.000,650.000,652.000,659.000,648.000
-608.297,660.000,654.000,653.000,656.000,648.000,653.000,654.000,656.000,650.000,652.000
-587.569,656.000,661.000,659.000,661.000,667.000,665.000,654.000,650.000,658.000,651.000
-566.883,660.000,654.000,654.000,662.000,659.000,660.000,654.000,661.000,660.000,660.000
-546.242,657.000,659.000,664.000,661.000,656.000,650.000,649.000,659.000,656.000,659.000
-525.644,654.000,655.000,659.000,662.000,658.000,656.000,662.000,659.000,658.000,658.000
-505.093,662.000,663.000,657.000,648.000,656.000,662.000,661.000,647.000,651.000,659.000
-484.583,655.000,657.000,653.000,654.000,662.000,657.000,659.000,660.000,659.000,658.000
-464.116,658.000,654.000,656.000,656.000,660.000,661.000,660.000,654.000,654.000,661.000
-443.693,656.000,662.000,659.000,652.000,666.000,652.000,660.000,661.000,653.000,663.000
-423.316,669.000,656.000,661.000,664.000,659.000,668.000,668.000,662.000,654.000,654.000
-402.979,657.000,659.000,667.000,653.000,659.000,659.000,662.000,662.000,663.000,658.000
-382.685,656.000,669.000,661.000,665.000,670.000,659.000,658.000,663.000,661.000,665.000
-362.434,665.000,670.000,674.000,669.000,668.000,663.000,657.000,671.000,664.000,669.000
-342.229,668.000,670.000,665.000,670.000,673.000,674.000,664.000,671.000,673.000,669.000
-322.063,672.000,676.000,671.000,674.000,679.000,668.000,673.000,667.000,679.000,672.000
-301.940,674.000,676.000,672.000,682.000,674.000,673.000,675.000,683.000,676.000,675.000
-281.859,678.000,688.000,689.000,689.000,689.000,687.000,683.000,696.000,688.000,687.000
-261.823,699.000,691.000,680.000,677.000,682.000,695.000,688.000,683.000,691.000,691.000
-241.826,704.000,700.000,705.000,703.000,703.000,710.000,693.000,698.000,702.000,703.000
-221.871,727.000,721.000,734.000,714.000,717.000,728.000,719.000,723.000,712.000,719.000
-201.959,742.000,733.000,733.000,734.000,735.000,738.000,734.000,729.000,743.000,741.000
-182.090,776.000,751.000,752.000,757.000,762.000,767.000,758.000,763.000,759.000,761.000
-162.260,833.000,821.000,816.000,819.000,816.000,835.000,826.000,816.000,823.000,820.000
-142.472,909.000,937.000,906.000,913.000,908.000,912.000,922.000,895.000,931.000,934.000
-122.724,1137.000,1133.000,1130.000,1109.000,1098.000,1128.000,1140.000,1126.000,1110.000,1125.000
-103.021,1908.000,1899.000,1838.000,1838.000,1860.000,1860.000,1852.000,1881.000,1891.000,1885.000
-83.356,2109.000,2086.000,2086.000,2074.000,2041.000,2091.000,2094.000,2081.000,2050.000,2036.000
-63.732,2355.000,2336.000,2289.000,2319.000,2316.000,2285.000,2261.000,2285.000,2322.000,2299.000
-44.149,2675.000,2589.000,2546.000,2611.000,2617.000,2611.000,2642.000,2563.000,2647.000,2592.000
-24.608,3015.000,2980.000,2907.000,2862.000,2940.000,3016.000,2934.000,2907.000,2900.000,2911.000
-5.106,3734.000,3663.000,3653.000,3694.000,3646.000,3575.000,3686.000,3703.000,3632.000,3606.000
14.356,4146.000,4156.000,4194.000,4172.000,4125.000,4124.000,4134.000,4132.000,4171.000,4072.000
33.777,3390.000,3365.000,3343.000,3267.000,3299.000,3267.000,3324.000,3279.000,3387.000,3258.000
53.157,3283.000,3275.000,3241.000,3201.000,3197.000,3238.000,3163.000,3208.000,3171.000,3224.000
72.498,2976.000,2997.000,3015.000,2993.000,2994.000,2962.000,2946.000,2958.000,2929.000,2950.000
91.800,2703.000,2733.000,2708.000,2763.000,2724.000,2747.000,2736.000,2725.000,2728.000,2710.000
111.061,2867.000,2783.000,2820.000,2855.000,2808.000,3786.000,2787.000,2805.000,2804.000,2864.000
130.281,1617.000,1601.000,1621.000,1569.000,1614.000,1618.000,1610.000,1593.000,1619.000,1606.000
149.464,1213.000,1209.000,1196.000,1192.000,1205.000,1193.000,1206.000,1185.000,1193.000,1196.000
168.607,1031.000,1049.000,1053.000,1036.000,1034.000,1049.000,1040.000,1056.000,1027.000,1048.000
187.711,951.000,947.000,960.000,953.000,938.000,941.000,950.000,937.000,948.000,947.000
206.774,898.000,878.000,870.000,860.000,870.000,888.000,897.000,867.000,869.000,873.000
225.800,861.000,848.000,867.000,844.000,854.000,855.000,860.000,870.000,843.000,854.000
244.787,827.000,826.000,812.000,826.000,821.000,816.000,822.000,832.000,825.000,811.000
263.735,786.000,791.000,798.000,791.000,795.000,787.000,802.000,795.000,777.000,793.000
282.643,779.000,788.000,754.000,775.000,776.000,770.000,775.000,769.000,771.000,770.000
301.513,779.000,779.000,763.000,777.000,773.000,771.000,769.000,764.000,757.000,759.000
320.346,742.000,764.000,751.000,749.000,745.000,757.000,747.000,751.000,741.000,754.000
339.140,739.000,747.000,743.000,739.000,734.000,746.000,747.000,739.000,740.000,736.000
357.894,741.000,740.000,745.000,736.000,723.000,726.000,735.000,741.000,739.000,731.000
376.612,728.000,722.000,723.000,722.000,730.000,717.000,727.000,718.000,730.000,719.000
395.292,717.000,707.000,713.000,718.000,711.000,709.000,711.000,722.000,703.000,719.000
413.934,714.000,712.000,703.000,699.000,697.000,699.000,710.000,709.000,709.000,707.000
432.536,717.000,732.000,711.000,722.000,711.000,714.000,715.000,715.000,723.000,714.000
451.103,702.000,714.000,706.000,715.000,699.000,695.000,699.000,697.000,692.000,705.000
469.633,695.000,696.000,701.000,695.000,702.000,690.000,699.000,687.000,694.000,699.000
488.124,706.000,704.000,698.000,695.000,707.000,699.000,705.000,711.000,696.000,701.000
506.577,721.000,708.000,694.000,711.000,706.000,707.000,711.000,693.000,708.000,704.000
524.994,708.000,715.000,718.000,719.000,700.000,721.000,711.000,714.000,719.000,707.000
543.375,736.000,733.000,731.000,720.000,719.000,726.000,726.000,732.000,720.000,721.000
561.718,708.000,702.000,701.000,701.000,697.000,697.000,702.000,696.000,698.000,694.000
580.023,749.000,751.000,745.000,753.000,730.000,755.000,760.000,743.000,756.000,751.000
598.293,748.000,751.000,744.000,747.000,744.000,748.000,744.000,740.000,740.000,739.000
616.526,740.000,735.000,736.000,730.000,733.000,737.000,727.000,720.000,740.000,733.000
634.723,723.000,722.000,735.000,717.000,734.000,725.000,721.000,727.000,727.000,724.000
652.881,715.000,707.000,712.000,705.000,712.000,705.000,709.000,717.000,720.000,723.000
671.005,709.000,711.000,714.000,722.000,715.000,704.000,710.000,713.000,705.000,701.000
689.093,711.000,712.000,724.000,715.000,711.000,710.000,710.000,719.000,712.000,716.000
707.145,722.000,722.000,724.000,724.000,730.000,735.000,718.000,729.000,734.000,725.000
725.159,738.000,722.000,733.000,729.000,723.000,717.000,730.000,721.000,733.000,723.000
743.139,738.000,738.000,730.000,730.000,743.000,730.000,736.000,738.000,731.000,744.000
761.084,735.000,730.000,738.000,728.000,737.000,726.000,735.000,716.000,733.000,735.000
778.992,726.000,742.000,733.000,736.000,728.000,729.000,727.000,731.000,727.000,733.000
796.864,732.000,732.000,723.000,739.000,739.000,718.000,719.000,729.000,744.000,730.000
814.701,749.000,738.000,735.000,740.000,729.000,736.000,727.000,735.000,741.000,732.000
832.504,779.000,777.000,779.000,773.000,781.000,776.000,777.000,762.000,763.000,770.000
850.271,777.000,804.000,787.000,789.000,793.000,790.000,780.000,783.000,798.000,774.000
868.001,805.000,796.000,782.000,792.000,790.000,793.000,789.000,784.000,775.000,797.000
885.698,825.000,823.000,813.000,823.000,830.000,832.000,808.000,812.000,810.000,813.000
903.360,827.000,817.000,803.000,845.000,812.000,827.000,827.000,808.000,828.000,802.000
920.988,892.000,888.000,888.000,891.000,884.000,890.000,884.000,885.000,887.000,879.000
938.579,936.000,916.000,904.000,909.000,915.000,882.000,907.000,903.000,920.000,910.000
943.850,872.000,875.000,889.000,866.000,861.000,873.000,891.000,891.000,881.000,880.000