File: Raman/2022_11_26_Hagfish_Film_Unstreched_532nm_Pol_6mW_750mm_600gv_3200wn_iDus_100s_10accum_Pos1.csv
2487.376,1182.000,1143.000,1136.000,1146.000,1139.000,1106.000,1115.000,1119.000,1107.000,1115.000
2503.346,1221.000,1183.000,1183.000,1155.000,1182.000,1155.000,1137.000,1186.000,1135.000,1122.000
2519.284,1230.000,1215.000,1182.000,1192.000,1153.000,1188.000,1175.000,1147.000,1170.000,1165.000
2535.192,1263.000,1215.000,1218.000,1198.000,1211.000,1189.000,1188.000,1145.000,1149.000,1180.000
2551.068,1215.000,1213.000,1221.000,1177.000,1203.000,1218.000,1181.000,1182.000,1156.000,1186.000
2566.914,1236.000,1225.000,1221.000,1231.000,1193.000,1207.000,1211.000,1175.000,1186.000,1166.000
2582.727,1290.000,1276.000,1240.000,1240.000,1270.000,1228.000,1204.000,1211.000,1215.000,1177.000
2598.510,1286.000,1278.000,1260.000,1257.000,1277.000,1259.000,1234.000,1253.000,1237.000,1230.000
2614.264,1331.000,1295.000,1298.000,1262.000,1275.000,1277.000,1287.000,1261.000,1241.000,1238.000
2629.986,1359.000,1303.000,1321.000,1282.000,1303.000,1293.000,1266.000,1286.000,1254.000,1244.000
2645.678,1345.000,1311.000,1297.000,1331.000,1328.000,1286.000,1262.000,1262.000,1259.000,1248.000
2661.340,1364.000,1362.000,1329.000,1319.000,1340.000,1324.000,1319.000,1313.000,1277.000,1280.000
2676.971,1395.000,1388.000,1343.000,1356.000,1322.000,1365.000,1302.000,1339.000,1304.000,1319.000
2692.572,1422.000,1372.000,1369.000,1382.000,1367.000,1338.000,1331.000,1363.000,1314.000,1336.000
2708.142,1462.000,1433.000,1404.000,1393.000,1403.000,1391.000,1362.000,1351.000,1358.000,1368.000
2723.683,1532.000,1448.000,1451.000,1456.000,1446.000,1456.000,1434.000,1406.000,1413.000,1449.000
2739.194,1529.000,1513.000,1501.000,1484.000,1494.000,1515.000,1463.000,1463.000,1457.000,1478.000
2754.675,1561.000,1530.000,1481.000,1486.000,1474.000,1473.000,1460.000,1437.000,1438.000,1415.000
2770.124,1598.000,1481.000,1465.000,1482.000,1452.000,1472.000,1466.000,1432.000,1406.000,1429.000
2785.545,1614.000,1503.000,1489.000,1496.000,1482.000,1465.000,1478.000,1481.000,1487.000,1451.000
2800.937,1532.000,1512.000,1525.000,1500.000,1537.000,1439.000,1476.000,1507.000,1447.000,1471.000
2816.299,1568.000,1505.000,1530.000,1486.000,1524.000,1542.000,1483.000,1489.000,1459.000,1477.000
2831.631,1640.000,1615.000,1603.000,1618.000,1599.000,1607.000,1609.000,1552.000,1550.000,1552.000
2846.935,1860.000,1805.000,1816.000,1828.000,1849.000,1820.000,1809.000,1788.000,1771.000,1781.000
2862.208,2478.000,2453.000,2423.000,2419.000,2416.000,2463.000,2434.000,2367.000,2372.000,2356.000
2877.453,3504.000,3466.000,3412.000,3414.000,3413.000,3383.000,3432.000,3413.000,3339.000,3403.000
2892.668,3700.000,3566.000,3587.000,3575.000,3596.000,3562.000,3578.000,3533.000,3528.000,3582.000
2907.855,3891.000,3822.000,3807.000,3784.000,3775.000,3773.000,3772.000,3841.000,3738.000,3710.000
2923.012,4735.000,4706.000,4684.000,4730.000,4627.000,4683.000,4615.000,4684.000,4573.000,4504.000
2938.139,5552.000,5447.000,5417.000,5399.000,5479.000,5405.000,5392.000,5378.000,5401.000,5370.000
2953.239,4678.000,4621.000,4595.000,4543.000,4557.000,4596.000,4675.000,4533.000,4547.000,4527.000
2968.310,3943.000,3858.000,3823.000,3853.000,3839.000,3831.000,3851.000,3806.000,3799.000,3764.000
2983.353,3586.000,3507.000,3510.000,3573.000,3471.000,3510.000,3483.000,3493.000,3516.000,3468.000
2998.366,3014.000,3012.000,2926.000,2998.000,2944.000,2953.000,2918.000,2949.000,2884.000,2912.000
3013.352,2347.000,2263.000,2298.000,2258.000,2339.000,2302.000,2258.000,2262.000,2222.000,2206.000
3028.309,1957.000,1959.000,1942.000,1901.000,1918.000,1903.000,1907.000,1854.000,1918.000,1861.000
3043.237,1952.000,1907.000,1897.000,1921.000,1907.000,1851.000,1875.000,1838.000,1835.000,1888.000
3058.138,2062.000,2060.000,2063.000,2001.000,2051.000,1994.000,2002.000,1967.000,1971.000,1966.000
3073.010,2197.000,2194.000,2101.000,2129.000,2082.000,2040.000,2043.000,2074.000,2057.000,2110.000
3087.854,1838.000,1883.000,1836.000,1837.000,1841.000,1795.000,1810.000,1815.000,1814.000,1738.000
3102.670,1764.000,1747.000,1728.000,1720.000,1682.000,1675.000,1675.000,1672.000,1693.000,1655.000
3117.457,1767.000,1725.000,1743.000,1739.000,1774.000,1784.000,1679.000,1708.000,1681.000,1672.000
3132.217,1758.000,1728.000,1716.000,1688.000,1715.000,1727.000,1714.000,1678.000,1646.000,1650.000
3146.950,1735.000,1708.000,1711.000,1707.000,1695.000,1700.000,1646.000,1699.000,1637.000,1609.000
3161.655,1767.000,1719.000,1743.000,1724.000,1709.000,1692.000,1664.000,1698.000,1688.000,1650.000
3176.332,1758.000,1734.000,1685.000,1754.000,1706.000,1709.000,1680.000,1664.000,1643.000,1626.000
3190.982,1806.000,1786.000,1737.000,1791.000,1777.000,1736.000,1788.000,1760.000,1706.000,1722.000
3205.604,1824.000,1805.000,1822.000,1802.000,1830.000,1785.000,1796.000,1806.000,1790.000,1723.000
3220.199,1947.000,1945.000,1898.000,1878.000,1914.000,1819.000,1919.000,1877.000,1862.000,1813.000
3234.767,2018.000,1948.000,1931.000,1963.000,1943.000,1959.000,1901.000,1914.000,1926.000,1875.000
3249.307,2114.000,2125.000,2077.000,2084.000,2105.000,2039.000,2052.000,2086.000,1998.000,2031.000
3263.820,2316.000,2276.000,2259.000,2275.000,2261.000,2295.000,2245.000,2215.000,2273.000,2242.000
3278.305,2462.000,2376.000,2377.000,2399.000,2362.000,2365.000,2358.000,2290.000,2311.000,2322.000
3292.764,2464.000,2374.000,2404.000,2353.000,2316.000,2322.000,2311.000,2310.000,2297.000,2279.000
3307.197,2280.000,2274.000,2265.000,2228.000,2239.000,2250.000,2207.000,2227.000,2179.000,2215.000
3321.602,2223.000,2171.000,2155.000,2169.000,2150.000,2177.000,2184.000,2126.000,2129.000,2159.000
3335.981,2157.000,2065.000,2059.000,2067.000,2053.000,2082.000,2052.000,2043.000,2014.000,2003.000
3350.333,2050.000,2075.000,2075.000,2034.000,2042.000,2053.000,1998.000,1987.000,1966.000,1978.000
3364.658,1982.000,1981.000,1963.000,1965.000,1943.000,1956.000,1900.000,1925.000,1913.000,1902.000
3378.957,1955.000,1956.000,1972.000,1890.000,1940.000,1907.000,1895.000,1898.000,1870.000,1835.000
3393.229,1857.000,1897.000,1877.000,1879.000,1837.000,1879.000,1830.000,1804.000,1811.000,1818.000
3407.475,1901.000,1841.000,1803.000,1821.000,1827.000,1828.000,1828.000,1794.000,1743.000,1775.000
3421.695,1844.000,1814.000,1777.000,1802.000,1761.000,1746.000,1758.000,1737.000,1746.000,1738.000
3435.888,1788.000,1747.000,1763.000,1740.000,1756.000,1756.000,1751.000,1687.000,1693.000,1661.000
3450.056,1750.000,1684.000,1721.000,1688.000,1713.000,1696.000,1711.000,1696.000,1712.000,1660.000
3464.195,1730.000,1716.000,1710.000,1698.000,1693.000,1706.000,1666.000,1602.000,1642.000,1623.000
3478.310,1695.000,1687.000,1684.000,1707.000,1654.000,1663.000,1650.000,1642.000,1626.000,1613.000
3492.399,1699.000,1664.000,1657.000,1646.000,1666.000,1644.000,1633.000,1634.000,1611.000,1621.000
3506.463,1688.000,1644.000,1633.000,1629.000,1623.000,1655.000,1684.000,1594.000,1601.000,1591.000
3520.500,1645.000,1642.000,1614.000,1636.000,1596.000,1628.000,1609.000,1563.000,1586.000,1567.000
3534.512,1643.000,1604.000,1596.000,1573.000,1611.000,1576.000,1558.000,1576.000,1574.000,1520.000
3548.498,1631.000,1628.000,1604.000,1588.000,1596.000,1588.000,1574.000,1546.000,1556.000,1559.000
3562.458,1658.000,1624.000,1596.000,1574.000,1588.000,1591.000,1581.000,1553.000,1598.000,1518.000
3576.393,1651.000,1580.000,1565.000,1551.000,1562.000,1554.000,1545.000,1563.000,1542.000,1518.000
3590.302,1585.000,1562.000,1539.000,1529.000,1528.000,1547.000,1522.000,1505.000,1478.000,1486.000
3604.186,1611.000,1571.000,1567.000,1586.000,1515.000,1527.000,1515.000,1553.000,1512.000,1491.000
3618.043,1615.000,1580.000,1563.000,1537.000,1540.000,1521.000,1516.000,1487.000,1478.000,1466.000
3631.877,1620.000,1608.000,1550.000,1537.000,1524.000,1501.000,1533.000,1486.000,1508.000,1467.000
3645.685,1586.000,1563.000,1544.000,1522.000,1555.000,1517.000,1524.000,1515.000,1500.000,1483.000
3659.468,1592.000,1561.000,1519.000,1523.000,1508.000,1501.000,1516.000,1485.000,1478.000,1483.000
3673.226,1591.000,1567.000,1532.000,1520.000,1556.000,1563.000,1546.000,1494.000,1478.000,1503.000
3686.959,1562.000,1550.000,1509.000,1582.000,1529.000,1505.000,1524.000,1491.000,1498.000,1474.000
3700.667,1583.000,1555.000,1537.000,1552.000,1532.000,1548.000,1560.000,1496.000,1524.000,1500.000
3714.350,1562.000,1577.000,1583.000,1562.000,1559.000,1524.000,1537.000,1527.000,1489.000,1507.000
3728.008,1590.000,1545.000,1542.000,1518.000,3764.000,1519.000,1511.000,1501.000,1492.000,1534.000
3741.642,1618.000,1575.000,1581.000,1584.000,1562.000,1537.000,1540.000,1537.000,1512.000,1536.000
3755.251,1607.000,1610.000,1568.000,1572.000,1554.000,1539.000,1545.000,1531.000,1542.000,1490.000
3768.836,1673.000,1633.000,1607.000,1543.000,1596.000,1571.000,1567.000,1572.000,1530.000,1508.000
3782.394,1663.000,1564.000,1656.000,1615.000,1618.000,1573.000,1588.000,1544.000,1569.000,1569.000
3795.930,1652.000,1647.000,1629.000,1637.000,1632.000,1633.000,1609.000,1576.000,1573.000,1574.000
3809.441,1716.000,1683.000,1634.000,1656.000,1665.000,1674.000,1639.000,1631.000,1636.000,1575.000
3822.928,1766.000,1725.000,1688.000,1702.000,1727.000,1701.000,1697.000,1718.000,1689.000,1675.000
3836.391,1808.000,1867.000,1807.000,1793.000,1777.000,1779.000,1817.000,1832.000,1735.000,1734.000
3849.829,2070.000,2090.000,2028.000,1989.000,2056.000,2026.000,1987.000,1959.000,1953.000,1976.000