File: Raman/2022_11_26_Nylon6_532nm_DePol_6mW_750mm_600gv_1200wn_iDus_100s_10accum_Pos1.csv
282.050,1181.000,1175.000,1203.000,1154.000,1185.000,1191.000,1162.000,1175.000,1178.000,1181.000
300.870,1181.000,1190.000,1176.000,1207.000,1180.000,1205.000,1141.000,1187.000,1182.000,1172.000
319.652,1106.000,1083.000,1070.000,1092.000,1059.000,1092.000,1090.000,1079.000,1076.000,1093.000
338.396,1037.000,1027.000,1059.000,1069.000,1032.000,1023.000,1060.000,1025.000,1056.000,1021.000
357.101,978.000,961.000,956.000,962.000,969.000,945.000,978.000,970.000,963.000,949.000
375.769,952.000,956.000,946.000,1039.000,920.000,936.000,933.000,945.000,947.000,938.000
394.399,908.000,914.000,909.000,906.000,896.000,890.000,899.000,903.000,890.000,892.000
412.991,873.000,862.000,857.000,851.000,858.000,855.000,880.000,855.000,851.000,853.000
431.546,907.000,887.000,883.000,895.000,916.000,874.000,883.000,892.000,897.000,888.000
450.064,852.000,868.000,856.000,857.000,848.000,855.000,866.000,859.000,855.000,858.000
468.544,835.000,833.000,831.000,831.000,848.000,838.000,819.000,822.000,827.000,827.000
486.987,836.000,868.000,831.000,831.000,850.000,830.000,832.000,832.000,833.000,824.000
505.393,896.000,890.000,875.000,887.000,876.000,887.000,873.000,882.000,868.000,867.000
523.762,927.000,913.000,915.000,898.000,906.000,903.000,910.000,906.000,918.000,890.000
542.094,940.000,910.000,933.000,922.000,929.000,932.000,909.000,922.000,929.000,924.000
560.389,827.000,831.000,846.000,854.000,848.000,830.000,837.000,839.000,832.000,836.000
578.647,1077.000,1092.000,1093.000,1086.000,1076.000,1064.000,1041.000,1077.000,1090.000,1074.000
596.870,1204.000,1195.000,1174.000,1179.000,1198.000,1173.000,1147.000,1170.000,1155.000,1140.000
615.055,1127.000,1124.000,1111.000,1103.000,1115.000,1123.000,1116.000,1115.000,1087.000,1103.000
633.205,1088.000,1075.000,1077.000,1081.000,1096.000,1068.000,1093.000,1073.000,1078.000,1043.000
651.318,991.000,966.000,959.000,956.000,953.000,947.000,917.000,953.000,951.000,956.000
669.395,931.000,929.000,935.000,927.000,930.000,940.000,926.000,920.000,914.000,920.000
687.436,945.000,933.000,929.000,947.000,912.000,933.000,929.000,936.000,916.000,936.000
705.441,1022.000,1029.000,1021.000,1028.000,1024.000,1041.000,1018.000,1027.000,1008.000,998.000
723.411,1035.000,1035.000,1048.000,1029.000,1063.000,1062.000,1038.000,1030.000,1023.000,1032.000
741.345,1137.000,1126.000,1119.000,1141.000,1117.000,1107.000,1123.000,1090.000,1131.000,1101.000
759.243,1094.000,1079.000,1091.000,1083.000,1070.000,1066.000,1102.000,1077.000,1067.000,1063.000
777.106,1043.000,1029.000,1048.000,1038.000,1052.000,1053.000,1063.000,1014.000,1046.000,1025.000
794.933,1075.000,1054.000,1053.000,1062.000,1061.000,1053.000,1035.000,1031.000,1058.000,1052.000
812.727,1182.000,1168.000,1208.000,1177.000,1213.000,1184.000,1168.000,1201.000,1167.000,1189.000
830.484,1448.000,1479.000,1477.000,1446.000,1441.000,1436.000,1429.000,1439.000,1430.000,1468.000
848.207,1532.000,1546.000,1547.000,1506.000,1547.000,1514.000,1526.000,1511.000,1504.000,1543.000
865.894,1604.000,1598.000,1603.000,1560.000,1556.000,1545.000,1570.000,1579.000,1597.000,1576.000
883.546,1874.000,1822.000,1833.000,1795.000,1878.000,1867.000,1824.000,1811.000,1817.000,1818.000
901.164,1864.000,1851.000,1833.000,1899.000,1856.000,1868.000,1856.000,1840.000,1839.000,1882.000
918.747,2556.000,2591.000,2510.000,2602.000,2536.000,2521.000,2557.000,2496.000,2539.000,2497.000
936.295,2456.000,2449.000,2460.000,2434.000,2429.000,2499.000,2424.000,2426.000,2424.000,2471.000
953.809,2075.000,2082.000,2022.000,1983.000,2006.000,2029.000,1990.000,2002.000,2048.000,2071.000
971.289,2079.000,2020.000,2038.000,2011.000,2135.000,2029.000,2025.000,2033.000,2057.000,2067.000
988.734,1567.000,1568.000,1574.000,1604.000,1540.000,1555.000,1569.000,1565.000,1557.000,1554.000
1006.146,1376.000,1401.000,1379.000,1414.000,1392.000,1404.000,1382.000,1369.000,1386.000,1386.000
1023.523,1448.000,1458.000,1434.000,1430.000,1439.000,1442.000,1458.000,1431.000,1444.000,1431.000
1040.867,1780.000,1798.000,1797.000,1806.000,1797.000,1804.000,1822.000,1808.000,1812.000,1818.000
1058.176,3214.000,3195.000,3180.000,3218.000,3164.000,3260.000,3151.000,3145.000,3138.000,3239.000
1075.452,3692.000,3700.000,3627.000,3648.000,3632.000,3715.000,3667.000,3631.000,3664.000,3707.000
1092.694,2326.000,2303.000,2341.000,2314.000,2313.000,2282.000,2337.000,2361.000,2354.000,2348.000
1109.903,2852.000,2847.000,2847.000,2822.000,2822.000,2854.000,2811.000,2775.000,2826.000,2782.000
1127.079,4273.000,4238.000,4208.000,4269.000,4191.000,4282.000,4232.000,4192.000,4198.000,4249.000
1144.221,1303.000,1331.000,1312.000,1321.000,1321.000,1324.000,1300.000,1339.000,1294.000,1287.000
1161.330,2200.000,2245.000,2275.000,2227.000,2201.000,2247.000,2222.000,2233.000,2186.000,2231.000
1178.405,1477.000,1474.000,1394.000,1416.000,1444.000,1455.000,1439.000,1431.000,1470.000,1431.000
1195.448,2677.000,2681.000,2728.000,2675.000,2696.000,2650.000,2661.000,2658.000,2650.000,2660.000
1212.458,1692.000,1631.000,1607.000,1637.000,1646.000,1601.000,1624.000,1635.000,1618.000,1643.000
1229.434,2084.000,2110.000,2075.000,2117.000,2128.000,2121.000,2064.000,2084.000,2079.000,2130.000
1246.379,2204.000,2210.000,2217.000,2195.000,2208.000,2182.000,2186.000,2215.000,2211.000,2231.000
1263.290,2883.000,2925.000,2893.000,2879.000,2886.000,2889.000,2875.000,2846.000,2910.000,2900.000
1280.169,3439.000,3397.000,3405.000,3396.000,3336.000,3406.000,3336.000,3352.000,3339.000,3349.000
1297.015,3605.000,3613.000,3572.000,3603.000,3643.000,3591.000,3584.000,3613.000,3639.000,3587.000
1313.830,2259.000,2250.000,2211.000,2211.000,2166.000,2192.000,2208.000,2195.000,2182.000,2196.000
1330.611,1691.000,1665.000,1657.000,1688.000,1666.000,1688.000,1672.000,1672.000,1668.000,1675.000
1347.361,1794.000,1836.000,1817.000,1791.000,1844.000,1839.000,1810.000,1825.000,1803.000,1813.000
1364.078,2459.000,2500.000,2499.000,2550.000,2567.000,2498.000,2564.000,2531.000,2497.000,2485.000
1380.764,2306.000,2374.000,2328.000,2359.000,2367.000,2324.000,2342.000,2316.000,2363.000,2383.000
1397.418,1384.000,1385.000,1364.000,1383.000,1347.000,1360.000,1368.000,1371.000,1397.000,1356.000
1414.039,2287.000,2289.000,2278.000,2307.000,2299.000,2272.000,2265.000,2263.000,2319.000,2272.000
1430.629,4716.000,4764.000,4588.000,4697.000,4691.000,4565.000,4642.000,4671.000,4631.000,4703.000
1447.188,3112.000,3089.000,3034.000,3061.000,3071.000,3050.000,3088.000,3043.000,3094.000,3135.000
1463.715,2729.000,2688.000,2706.000,2699.000,2637.000,2683.000,2729.000,2683.000,2723.000,2682.000
1480.210,1520.000,1553.000,1516.000,1542.000,1541.000,1490.000,1515.000,1499.000,1501.000,1522.000
1496.674,1055.000,1056.000,1065.000,1053.000,1046.000,1032.000,1067.000,1053.000,1053.000,1041.000
1513.107,1035.000,1024.000,1038.000,1025.000,1033.000,1044.000,1028.000,1032.000,1027.000,1012.000
1529.509,1191.000,1160.000,1187.000,1190.000,1198.000,1192.000,1176.000,1162.000,1174.000,1198.000
1545.879,1135.000,1158.000,1125.000,1128.000,1142.000,1144.000,1126.000,1116.000,1110.000,1144.000
1562.219,1043.000,1040.000,1054.000,1038.000,1062.000,1045.000,1036.000,1044.000,1023.000,1039.000
1578.527,993.000,993.000,1001.000,1004.000,975.000,995.000,990.000,996.000,971.000,994.000
1594.805,1214.000,1224.000,1189.000,1204.000,1216.000,1232.000,1211.000,1203.000,1197.000,1203.000
1611.052,1792.000,1799.000,1788.000,1779.000,1792.000,1783.000,1730.000,1768.000,1766.000,1786.000
1627.268,8255.000,8283.000,8247.000,8346.000,8284.000,8278.000,8286.000,8221.000,8230.000,8262.000
1643.454,2684.000,2674.000,2719.000,2732.000,2693.000,2708.000,2696.000,2630.000,2697.000,2681.000
1659.609,1683.000,1655.000,1662.000,1633.000,1637.000,1675.000,1666.000,1661.000,1667.000,1643.000
1675.734,1090.000,1086.000,1065.000,1095.000,1071.000,1052.000,1114.000,1085.000,1085.000,1078.000
1691.829,887.000,885.000,896.000,887.000,903.000,891.000,896.000,876.000,888.000,889.000
1707.893,866.000,842.000,841.000,847.000,854.000,840.000,842.000,851.000,1093.000,840.000
1723.927,837.000,840.000,841.000,846.000,842.000,820.000,827.000,819.000,822.000,813.000
1739.931,840.000,827.000,833.000,833.000,833.000,846.000,820.000,809.000,827.000,820.000
1755.905,812.000,829.000,811.000,804.000,793.000,813.000,810.000,811.000,809.000,823.000
1771.849,828.000,829.000,825.000,822.000,797.000,809.000,820.000,807.000,824.000,799.000
1787.764,819.000,823.000,823.000,793.000,810.000,810.000,805.000,812.000,809.000,810.000
1803.649,813.000,821.000,804.000,815.000,821.000,818.000,811.000,809.000,806.000,811.000
1819.505,832.000,831.000,837.000,826.000,831.000,831.000,826.000,811.000,823.000,812.000
1835.331,843.000,841.000,828.000,825.000,839.000,817.000,814.000,814.000,822.000,812.000
1851.127,845.000,846.000,845.000,821.000,835.000,848.000,837.000,827.000,835.000,831.000
1866.894,862.000,848.000,846.000,846.000,852.000,832.000,852.000,854.000,835.000,807.000
1882.631,851.000,855.000,857.000,854.000,851.000,861.000,842.000,854.000,851.000,1089.000
1898.339,882.000,866.000,888.000,875.000,855.000,874.000,877.000,871.000,861.000,857.000
1914.018,877.000,887.000,861.000,877.000,873.000,859.000,863.000,864.000,885.000,883.000
1929.668,890.000,897.000,895.000,867.000,896.000,893.000,899.000,897.000,900.000,899.000
1945.289,902.000,917.000,910.000,912.000,920.000,901.000,897.000,923.000,899.000,1027.000
1960.881,923.000,932.000,949.000,915.000,935.000,933.000,945.000,938.000,932.000,918.000
1976.444,972.000,988.000,988.000,963.000,980.000,972.000,967.000,953.000,968.000,965.000
1991.978,1031.000,1028.000,1017.000,1000.000,1024.000,992.000,1034.000,1018.000,1029.000,1017.000
2007.484,1113.000,1100.000,1107.000,1119.000,1103.000,1090.000,1078.000,1099.000,1106.000,1095.000
2022.961,1255.000,1261.000,1273.000,1243.000,1277.000,1264.000,1254.000,1267.000,1242.000,1249.000
2027.598,1349.000,1349.000,1311.000,1324.000,1363.000,1344.000,1347.000,1335.000,1352.000,1361.000