File: Raman/2023_07_05_CBG_Powder_Pos9_532nm_DePol_230uW_750mm_600gv_3200wn_iDus_100s_3accum_50x_Mit.csv
2487.376,3212.000
2493.186,3259.000
2498.994,3266.000
2504.796,3265.000
2510.594,3319.000
2516.389,3355.000
2522.179,3300.000
2527.964,3347.000
2533.747,3333.000
2539.524,3324.000
2545.298,3382.000
2551.068,3431.000
2556.833,3387.000
2562.594,3437.000
2568.352,3367.000
2574.105,3429.000
2579.854,3456.000
2585.600,3421.000
2591.341,3450.000
2597.077,3484.000
2602.811,3499.000
2608.539,3458.000
2614.264,3452.000
2619.985,3511.000
2625.702,3510.000
2631.414,3539.000
2637.123,3567.000
2642.827,3565.000
2648.528,3506.000
2654.225,3605.000
2659.917,3578.000
2665.605,3569.000
2671.291,3589.000
2676.971,3575.000
2682.647,3584.000
2688.320,3629.000
2693.988,3589.000
2699.652,3633.000
2705.314,3666.000
2710.970,3630.000
2716.622,3713.000
2722.272,3690.000
2727.916,3659.000
2733.556,3750.000
2739.194,3777.000
2744.826,3675.000
2750.454,3712.000
2756.080,3701.000
2761.701,3716.000
2767.317,3706.000
2772.931,3686.000
2778.540,3692.000
2784.145,3749.000
2789.747,3632.000
2795.344,3699.000
2800.937,3750.000
2806.527,3718.000
2812.113,3734.000
2817.694,3739.000
2823.273,3755.000
2828.846,3736.000
2834.416,3807.000
2839.983,3787.000
2845.545,3864.000
2851.103,4034.000
2856.658,4221.000
2862.208,4268.000
2867.755,4280.000
2873.299,4248.000
2878.837,4359.000
2884.372,4302.000
2889.904,4318.000
2895.432,4476.000
2900.955,4798.000
2906.476,4529.000
2911.991,4613.000
2917.503,4649.000
2923.012,4681.000
2928.516,4678.000
2934.017,4606.000
2939.515,4536.000
2945.007,4466.000
2950.496,4170.000
2955.983,4150.000
2961.464,4099.000
2966.941,4249.000
2972.417,4409.000
2977.886,4194.000
2983.353,4124.000
2988.816,4043.000
2994.275,3965.000
2999.730,3947.000
3005.182,3947.000
3010.629,3987.000
3016.073,3939.000
3021.514,3853.000
3026.950,3951.000
3032.382,3914.000
3037.812,4015.000
3043.237,4033.000
3048.658,4035.000
3054.077,4081.000
3059.491,3976.000
3064.900,3887.000
3070.308,3933.000
3075.711,3885.000
3081.109,3822.000
3086.506,3823.000
3091.897,3863.000
3097.285,3802.000
3102.670,3849.000
3108.050,3855.000
3113.427,3851.000
3118.801,3847.000
3124.170,3854.000
3129.536,3856.000
3134.899,3872.000
3140.257,3858.000
3145.612,3845.000
3150.964,3832.000
3156.311,3860.000
3161.655,3810.000
3166.996,3800.000
3172.332,3838.000
3177.665,3780.000
3182.995,3820.000
3188.320,3825.000
3193.642,3833.000
3198.962,3829.000
3204.276,3832.000
3209.587,3765.000
3214.895,3817.000
3220.199,3824.000
3225.499,3863.000
3230.797,3819.000
3236.090,3815.000
3241.379,3781.000
3246.666,3807.000
3251.948,3777.000
3257.226,3842.000
3262.502,3854.000
3267.773,3833.000
3273.041,3780.000
3278.305,3828.000
3283.567,3796.000
3288.824,3789.000
3294.079,3778.000
3299.329,3781.000
3304.575,3815.000
3309.818,3793.000
3315.058,3856.000
3320.294,3800.000
3325.527,3829.000
3330.756,3804.000
3335.981,3854.000
3341.202,3804.000
3346.422,3815.000
3351.636,3816.000
3356.848,3837.000
3362.056,3802.000
3367.260,3877.000
3372.460,3872.000
3377.658,3816.000
3382.852,3787.000
3388.043,3843.000
3393.229,3807.000
3398.412,3896.000
3403.592,3814.000
3408.769,3837.000
3413.941,3855.000
3419.112,3807.000
3424.277,3852.000
3429.439,3870.000
3434.598,3853.000
3439.754,3851.000
3444.906,3808.000
3450.056,3812.000
3455.200,3854.000
3460.342,3857.000
3465.479,3879.000
3470.615,3880.000
3475.746,3811.000
3480.875,3860.000
3485.999,3802.000
3491.120,3813.000
3496.237,3832.000
3501.352,3770.000
3506.463,3851.000
3511.570,3791.000
3516.675,3844.000
3521.775,3788.000
3526.871,3793.000
3531.966,3735.000
3537.056,3819.000
3542.143,3777.000
3547.227,3790.000
3552.307,3779.000
3557.383,3794.000
3562.458,3801.000
3567.528,3791.000
3572.594,3831.000
3577.658,3777.000
3582.718,3809.000
3587.774,3823.000
3592.828,3843.000
3597.877,3805.000
3602.924,3785.000
3607.968,3830.000
3613.007,3851.000
3618.043,3860.000
3623.077,3806.000
3628.107,3817.000
3633.133,3836.000
3638.157,3817.000
3643.176,3818.000
3648.192,3821.000
3653.206,3817.000
3658.216,3836.000
3663.222,3825.000
3668.226,3851.000
3673.226,3842.000
3678.222,3851.000
3683.216,3858.000
3688.206,3851.000
3693.192,3847.000
3698.177,3933.000
3703.156,3900.000
3708.133,3880.000
3713.107,3882.000
3718.077,3906.000
3723.044,3929.000
3728.008,3958.000
3732.969,3932.000
3737.925,3978.000
3742.880,3948.000
3747.831,3955.000
3752.778,3985.000
3757.723,4027.000
3762.663,4031.000
3767.601,4031.000
3772.536,4009.000
3777.467,4082.000
3782.394,4084.000
3787.320,4093.000
3792.241,4047.000
3797.159,4190.000
3802.075,4171.000
3806.987,4155.000
3811.895,4252.000
3816.801,4312.000
3821.703,4372.000
3826.602,4434.000
3831.498,4671.000
3836.391,4657.000
3841.280,4763.000
3846.167,5020.000
3849.829,5316.000