File: Raman/2023_07_05_CBG_Powder_Pos9_532nm_UnPol_230uW_750mm_2400gv_0wn_iDus_100s_3accum_50x_Mit_Pos2.csv
-198.031,2076.000
-196.565,2091.000
-195.096,2078.000
-193.630,2107.000
-192.162,2083.000
-190.696,2096.000
-189.229,2099.000
-187.763,2103.000
-186.296,2103.000
-184.831,2101.000
-183.365,2101.000
-181.900,2098.000
-180.434,2103.000
-178.970,2112.000
-177.505,2119.000
-176.041,2089.000
-174.576,2098.000
-173.113,2106.000
-171.648,2116.000
-170.185,2110.000
-168.721,2106.000
-167.259,2112.000
-165.795,2118.000
-164.333,2113.000
-162.870,2112.000
-161.409,2117.000
-159.946,2124.000
-158.485,2097.000
-157.022,2096.000
-155.562,2114.000
-154.100,2116.000
-152.640,2124.000
-151.178,2126.000
-149.719,2126.000
-148.258,2125.000
-146.799,2128.000
-145.338,2143.000
-143.879,2148.000
-142.419,2168.000
-140.961,2130.000
-139.501,2132.000
-138.043,2142.000
-136.584,2150.000
-135.127,2131.000
-133.668,2130.000
-132.211,2169.000
-130.753,2137.000
-129.296,2157.000
-127.838,2111.000
-126.383,2150.000
-124.925,2139.000
-123.470,2136.000
-122.012,2162.000
-120.557,2170.000
-119.103,2147.000
-117.646,2144.000
-116.192,2161.000
-114.736,2166.000
-113.282,2138.000
-111.826,2172.000
-110.373,2165.000
-108.918,2152.000
-107.465,2163.000
-106.010,2161.000
-104.558,2165.000
-103.104,2171.000
-101.652,2176.000
-100.198,2151.000
-98.746,2182.000
-97.293,2193.000
-95.842,2616.000
-94.389,2228.000
-92.938,2229.000
-91.486,2220.000
-90.035,2260.000
-88.583,2263.000
-87.134,2276.000
-85.682,2298.000
-84.233,2353.000
-82.781,2359.000
-81.333,2357.000
-79.882,2393.000
-78.434,2389.000
-76.983,2401.000
-75.535,2442.000
-74.085,2491.000
-72.638,2569.000
-71.188,2597.000
-69.741,2602.000
-68.292,2595.000
-66.846,2575.000
-65.397,2570.000
-63.951,2556.000
-62.503,2579.000
-61.057,2575.000
-59.610,2613.000
-58.164,2618.000
-56.717,2574.000
-55.272,2574.000
-53.826,2599.000
-52.381,2647.000
-50.935,2730.000
-49.491,2728.000
-48.045,2675.000
-46.602,2677.000
-45.156,2646.000
-43.713,2670.000
-42.268,2715.000
-40.825,2715.000
-39.383,2715.000
-37.939,2614.000
-36.497,2535.000
-35.053,2516.000
-33.611,2508.000
-32.168,2548.000
-30.727,2659.000
-29.284,2830.000
-27.843,2962.000
-26.401,3143.000
-24.961,3323.000
-23.518,3568.000
-22.079,3456.000
-20.637,3253.000
-19.198,3093.000
-17.756,2871.000
-16.318,2758.000
-14.877,3058.000
-13.438,2933.000
-11.998,2604.000
-10.560,2467.000
-9.120,2342.000
-7.683,2165.000
-6.243,2025.000
-4.806,2032.000
-3.367,2115.000
-1.930,2501.000
-0.492,2442.000
0.945,2142.000
2.383,2048.000
3.818,2157.000
5.256,2423.000
6.692,2446.000
8.129,2599.000
9.564,2760.000
11.001,3396.000
12.435,3102.000
13.871,2963.000
15.305,3060.000
16.741,3294.000
18.175,3453.000
19.610,3588.000
21.044,3768.000
22.479,3473.000
23.911,3320.000
25.346,3207.000
26.778,2952.000
28.213,2725.000
29.644,2629.000
31.078,2589.000
32.510,2611.000
33.943,2660.000
35.374,2754.000
36.807,2871.000
38.237,2986.000
39.668,2892.000
41.100,3085.000
42.530,2756.000
43.961,2769.000
45.391,2860.000
46.822,2972.000
48.251,2935.000
49.682,2867.000
51.111,2820.000
52.541,2787.000
53.969,2788.000
55.399,6733.000
56.827,2789.000
58.257,2796.000
59.684,2779.000
61.113,2808.000
62.540,2797.000
63.969,2818.000
65.395,2848.000
66.823,2825.000
68.249,2856.000
69.677,2822.000
71.103,2762.000
72.530,2731.000
73.955,2666.000
75.382,2607.000
76.807,2559.000
78.233,2558.000
79.658,2527.000
81.084,2508.000
82.508,2533.000
83.933,2511.000
85.357,2519.000
86.782,2446.000
88.205,2440.000
89.630,2382.000
91.052,2346.000
92.477,2374.000
93.899,2372.000
95.323,2376.000
96.744,2376.000
98.168,2359.000
99.589,2355.000
101.012,2364.000
102.433,2372.000
103.855,2381.000
105.276,2384.000
106.698,2390.000
108.118,2395.000
109.540,2376.000
110.959,2341.000
112.380,2380.000
113.800,2376.000
115.218,2384.000
116.639,2385.000
118.057,2400.000
119.478,2631.000
120.896,2394.000
122.316,2401.000
123.733,2418.000
125.152,2411.000
126.570,2426.000
127.989,2473.000
129.405,2457.000
130.824,2454.000
132.240,2478.000
133.658,2501.000
135.074,2513.000
136.492,2530.000
137.907,2551.000
139.324,2517.000
140.739,2563.000
142.156,2540.000
143.571,2581.000
144.987,2638.000
146.401,2631.000
147.817,2640.000
149.231,2660.000
150.646,2640.000
152.059,2715.000
153.475,2710.000
154.887,2736.000
156.302,2803.000
157.714,2855.000
159.129,2888.000
160.541,2912.000
161.954,2994.000
163.366,3054.000
164.779,3154.000
166.190,3270.000
167.603,3482.000
169.014,3688.000
170.073,3938.000