File: Raman/Silica/2022_12_08_Qtz_355nm_UnPol_11mW_750mm_1200gv_0wn_iDus_1s_1accum_50x_Mit_UV_Lens.csv
-1149.966,632.000
-1140.635,635.000
-1131.308,636.000
-1121.989,640.000
-1112.673,640.000
-1103.366,635.000
-1094.065,640.000
-1084.767,640.000
-1075.478,639.000
-1066.192,634.000
-1056.914,637.000
-1047.640,632.000
-1038.375,639.000
-1029.115,635.000
-1019.858,641.000
-1010.610,637.000
-1001.365,637.000
-992.129,635.000
-982.898,636.000
-973.671,639.000
-964.452,642.000
-955.236,641.000
-946.029,638.000
-936.825,643.000
-927.630,639.000
-918.440,638.000
-909.253,637.000
-900.075,645.000
-890.900,639.000
-881.734,635.000
-872.573,638.000
-863.415,633.000
-854.266,639.000
-845.120,633.000
-835.982,637.000
-826.848,635.000
-817.721,636.000
-808.601,632.000
-799.484,644.000
-790.375,640.000
-781.269,637.000
-772.171,639.000
-763.077,638.000
-753.991,642.000
-744.910,644.000
-735.833,640.000
-726.764,640.000
-717.698,639.000
-708.640,633.000
-699.588,636.000
-690.539,637.000
-681.499,640.000
-672.461,639.000
-663.432,639.000
-654.408,639.000
-645.388,639.000
-636.375,645.000
-627.366,639.000
-618.365,640.000
-609.367,639.000
-600.377,640.000
-591.393,635.000
-582.412,641.000
-573.439,642.000
-564.469,637.000
-555.507,641.000
-546.551,640.000
-537.597,638.000
-528.652,637.000
-519.710,639.000
-510.776,641.000
-501.846,638.000
-492.923,642.000
-484.005,639.000
-475.091,638.000
-466.185,638.000
-457.282,640.000
-448.387,642.000
-439.497,638.000
-430.611,636.000
-421.732,642.000
-412.857,639.000
-403.989,635.000
-395.125,638.000
-386.268,639.000
-377.417,640.000
-368.569,639.000
-359.729,640.000
-350.892,634.000
-342.063,642.000
-333.236,636.000
-324.418,637.000
-315.606,646.000
-306.796,642.000
-297.994,633.000
-289.195,638.000
-280.404,643.000
-271.619,637.000
-262.836,639.000
-254.061,637.000
-245.289,639.000
-236.526,636.000
-227.767,636.000
-219.012,634.000
-210.264,637.000
-201.519,646.000
-192.782,638.000
-184.048,638.000
-175.322,642.000
-166.601,640.000
-157.884,640.000
-149.174,635.000
-140.466,638.000
-131.767,641.000
-123.073,636.000
-114.382,642.000
-105.699,638.000
-97.018,647.000
-88.346,634.000
-79.676,641.000
-71.014,644.000
-62.357,636.000
-53.703,637.000
-45.057,636.000
-36.414,643.000
-27.778,642.000
-19.148,643.000
-10.521,657.000
-1.901,787.000
6.716,34094.000
15.325,770.000
23.931,657.000
32.530,672.000
41.123,819.000
49.714,879.000
58.297,808.000
66.877,697.000
75.449,657.000
84.016,641.000
92.581,645.000
101.137,645.000
109.691,644.000
118.237,649.000
126.781,666.000
135.317,809.000
143.848,670.000
152.375,654.000
160.896,660.000
169.413,656.000
177.923,668.000
186.428,679.000
194.930,693.000
203.425,755.000
211.916,826.000
220.400,800.000
228.882,715.000
237.356,671.000
245.824,675.000
254.290,671.000
262.749,667.000
271.204,697.000
279.653,654.000
288.098,650.000
296.536,655.000
304.969,649.000
313.399,650.000
321.822,645.000
330.242,644.000
338.654,644.000
347.062,639.000
355.466,653.000
363.864,687.000
372.258,640.000
380.645,645.000
389.027,652.000
397.407,662.000
405.779,656.000
414.148,646.000
422.510,654.000
430.869,649.000
439.221,655.000
447.568,657.000
455.912,698.000
464.248,921.000
472.582,1296.000
480.909,769.000
489.233,695.000
497.550,670.000
505.862,668.000
514.171,710.000
522.472,658.000
530.771,667.000
539.063,662.000
547.350,655.000
555.634,649.000
563.911,647.000
572.185,649.000
580.452,651.000
588.714,640.000
596.973,647.000
605.226,644.000
613.475,639.000
621.717,648.000
629.957,649.000
638.189,647.000
646.417,649.000
654.641,647.000
662.859,647.000
671.074,644.000
679.282,646.000
687.485,647.000
695.685,659.000
703.878,653.000
712.069,647.000
720.252,644.000
728.433,649.000
736.606,651.000
744.775,646.000
752.941,651.000
761.100,644.000
769.257,649.000
777.406,640.000
785.550,645.000
793.692,645.000
801.827,650.000
809.959,676.000
818.084,675.000
826.207,647.000
834.323,655.000
842.433,647.000
850.541,653.000
858.642,660.000
866.741,653.000
874.832,655.000
882.919,657.000
891.003,656.000
899.080,646.000
907.155,653.000
915.222,659.000
923.287,647.000
931.345,649.000
939.398,655.000
947.449,651.000
955.492,652.000
963.534,647.000
971.568,660.000
979.597,651.000
987.624,643.000
995.644,651.000
1003.662,643.000
1011.672,658.000
1019.680,647.000
1027.681,651.000
1035.677,651.000
1043.671,647.000
1051.658,649.000
1057.646,652.000