File: Raman/Silica/2022_12_08_29Si17O2_Not_MQ_532nm_DePol_50mW_750mm_600gv_3000wn_iDus_10s_3accum.csv
2268.047,1789.000,1728.000,1739.000
2274.019,1774.000,1760.000,1697.000
2279.988,1807.000,1731.000,1742.000
2285.950,1811.000,1814.000,1763.000
2291.910,1772.000,1759.000,1738.000
2297.865,1801.000,1765.000,1759.000
2303.816,1817.000,1787.000,1737.000
2309.763,1809.000,1800.000,1791.000
2315.703,1819.000,1814.000,1745.000
2321.642,1793.000,1796.000,1803.000
2327.575,1871.000,1829.000,1787.000
2333.505,1873.000,1829.000,1818.000
2339.430,1873.000,1830.000,1791.000
2345.350,1856.000,1816.000,1790.000
2351.267,1891.000,1863.000,1803.000
2357.179,1851.000,1852.000,1874.000
2363.088,1876.000,1843.000,1768.000
2368.992,1898.000,1896.000,1836.000
2374.890,1891.000,1877.000,1851.000
2380.786,1904.000,1841.000,1861.000
2386.677,1870.000,1878.000,1884.000
2392.564,1962.000,1883.000,1878.000
2398.447,1937.000,1870.000,1858.000
2404.324,1919.000,1899.000,1863.000
2410.199,1977.000,1920.000,1844.000
2416.069,1979.000,1959.000,1880.000
2421.935,1911.000,1939.000,1908.000
2427.795,1978.000,1888.000,1855.000
2433.653,1985.000,1962.000,1919.000
2439.506,1938.000,1919.000,1889.000
2445.356,1997.000,1934.000,1877.000
2451.201,2014.000,1887.000,1942.000
2457.040,2009.000,1985.000,1912.000
2462.877,2012.000,1944.000,1945.000
2468.709,1976.000,1975.000,1996.000
2474.538,2017.000,2002.000,1966.000
2480.362,2014.000,1968.000,1948.000
2486.181,2034.000,1967.000,1976.000
2491.997,2071.000,1995.000,1955.000
2497.809,2033.000,1974.000,1971.000
2503.616,2055.000,2018.000,2003.000
2509.420,2076.000,2014.000,1983.000
2515.218,2089.000,1967.000,1945.000
2521.013,2063.000,1997.000,1983.000
2526.804,2084.000,2057.000,1984.000
2532.591,2079.000,2006.000,1966.000
2538.374,2092.000,2048.000,1984.000
2544.151,2107.000,2026.000,2010.000
2549.926,2097.000,2051.000,1998.000
2555.697,2096.000,2063.000,1954.000
2561.463,2080.000,2042.000,2029.000
2567.226,2105.000,2026.000,2019.000
2572.982,2150.000,2076.000,2026.000
2578.737,2094.000,2090.000,2053.000
2584.487,2081.000,2043.000,1991.000
2590.233,2098.000,2085.000,2070.000
2595.975,2080.000,2037.000,2013.000
2601.711,2123.000,2079.000,1995.000
2607.445,2128.000,2042.000,2023.000
2613.175,2142.000,2085.000,2061.000
2618.901,2164.000,2036.000,2025.000
2624.622,2183.000,2123.000,2043.000
2630.339,2217.000,2100.000,2073.000
2636.052,2093.000,2087.000,2074.000
2641.762,2141.000,2094.000,2084.000
2647.467,2168.000,2078.000,2082.000
2653.169,2195.000,2067.000,2106.000
2658.865,2138.000,2111.000,2059.000
2664.558,2182.000,2093.000,2083.000
2670.248,2192.000,2154.000,2123.000
2675.933,2181.000,2109.000,2091.000
2681.613,2126.000,2111.000,2110.000
2687.291,2165.000,2191.000,2106.000
2692.964,2175.000,2116.000,2103.000
2698.634,2183.000,2097.000,2084.000
2704.299,2168.000,2165.000,2176.000
2709.959,2189.000,2129.000,2094.000
2715.617,2134.000,2113.000,2069.000
2721.270,2223.000,2173.000,2092.000
2726.920,2185.000,2142.000,2088.000
2732.565,2215.000,2135.000,2072.000
2738.205,2189.000,2115.000,2123.000
2743.843,2189.000,2126.000,2113.000
2749.477,2191.000,2148.000,2056.000
2755.107,2218.000,2158.000,2095.000
2760.732,2192.000,2131.000,2073.000
2766.353,2183.000,2191.000,2100.000
2771.971,2184.000,2135.000,2120.000
2777.585,2171.000,2156.000,2087.000
2783.195,2176.000,2166.000,2097.000
2788.801,2214.000,2148.000,2116.000
2794.401,2164.000,2171.000,2109.000
2800.000,2184.000,2204.000,2114.000
2805.594,2193.000,2118.000,2119.000
2811.185,2217.000,2196.000,2110.000
2816.771,2225.000,2157.000,2108.000
2822.352,2227.000,2161.000,2121.000
2827.931,2178.000,2125.000,2102.000
2833.506,2171.000,2169.000,2142.000
2839.077,2211.000,2163.000,2154.000
2844.644,2205.000,2132.000,2101.000
2850.206,2214.000,2173.000,2150.000
2855.765,2235.000,2160.000,2125.000
2861.320,2234.000,2186.000,2122.000
2866.872,2152.000,2141.000,2186.000
2872.420,2271.000,2175.000,2091.000
2877.962,2198.000,2179.000,2136.000
2883.502,2223.000,2150.000,2121.000
2889.038,2203.000,2171.000,2133.000
2894.570,2219.000,2199.000,2141.000
2900.099,2201.000,2193.000,2203.000
2905.622,2209.000,2164.000,2120.000
2911.143,2248.000,2131.000,2130.000
2916.659,2195.000,2201.000,2179.000
2922.173,2266.000,2148.000,2152.000
2927.682,2239.000,2209.000,2131.000
2933.186,2233.000,2170.000,2134.000
2938.687,2208.000,2150.000,2057.000
2944.185,2233.000,2212.000,2152.000
2949.679,2186.000,2194.000,2161.000
2955.168,2189.000,2173.000,2169.000
2960.654,2145.000,2173.000,2082.000
2966.137,2200.000,2172.000,2093.000
2971.616,2223.000,2166.000,2152.000
2977.091,2202.000,2171.000,2071.000
2982.560,2177.000,2119.000,2101.000
2988.028,2200.000,2174.000,2114.000
2993.491,2186.000,2136.000,2096.000
2998.951,2195.000,2103.000,2116.000
3004.407,2144.000,2126.000,2074.000
3009.858,2180.000,2093.000,2072.000
3015.307,2154.000,2115.000,2051.000
3020.752,2148.000,2106.000,2069.000
3026.193,2175.000,2121.000,2070.000
3031.630,2179.000,2137.000,2112.000
3037.062,2154.000,2154.000,2070.000
3042.492,2144.000,2082.000,2113.000
3047.918,2154.000,2133.000,2051.000
3053.340,2150.000,2110.000,2090.000
3058.759,2179.000,2145.000,2102.000
3064.172,2195.000,2110.000,2122.000
3069.583,2145.000,2093.000,2067.000
3074.991,2139.000,2147.000,2086.000
3080.395,2136.000,2135.000,2097.000
3085.795,2129.000,2123.000,2082.000
3091.189,2132.000,2094.000,2087.000
3096.582,2159.000,2048.000,2051.000
3101.971,2151.000,2105.000,2072.000
3107.356,2149.000,2126.000,2099.000
3112.738,2095.000,2076.000,2048.000
3118.114,2147.000,2100.000,2077.000
3123.488,2147.000,2111.000,2016.000
3128.859,2171.000,2109.000,2084.000
3134.225,2122.000,2089.000,2062.000
3139.587,2124.000,2097.000,2058.000
3144.946,2132.000,2111.000,2053.000
3150.302,2116.000,2105.000,2055.000
3155.654,2129.000,2071.000,2067.000
3161.003,2159.000,2042.000,2040.000
3166.346,2158.000,2065.000,2017.000
3171.687,2141.000,2098.000,2026.000
3177.024,2060.000,2093.000,2070.000
3182.358,2115.000,2055.000,1992.000
3187.688,2117.000,2087.000,2054.000
3193.014,2119.000,2042.000,2068.000
3198.336,2107.000,2086.000,2014.000
3203.656,2106.000,2059.000,2053.000
3208.971,2101.000,2027.000,2006.000
3214.283,2116.000,2026.000,2023.000
3219.590,2123.000,2083.000,1997.000
3224.895,2125.000,2072.000,1997.000
3230.196,2073.000,2014.000,2029.000
3235.494,2097.000,2068.000,2021.000
3240.788,2139.000,2065.000,2015.000
3246.077,2119.000,2051.000,2015.000
3251.364,2082.000,2015.000,2003.000
3256.647,2118.000,2036.000,2027.000
3261.926,2141.000,2097.000,2022.000
3267.202,2128.000,2040.000,1949.000
3272.473,2114.000,2056.000,1995.000
3277.742,2116.000,2033.000,2034.000
3283.007,2075.000,2041.000,2013.000
3288.269,2101.000,2015.000,2082.000
3293.527,2077.000,2011.000,2031.000
3298.780,2086.000,2034.000,1975.000
3304.031,2088.000,2022.000,1981.000
3309.279,2073.000,2023.000,2003.000
3314.523,2082.000,2050.000,1990.000
3319.763,2090.000,2042.000,2012.000
3324.998,2074.000,2033.000,2005.000
3330.232,2083.000,2029.000,1994.000
3335.461,2060.000,2062.000,1961.000
3340.688,2007.000,2006.000,2011.000
3345.910,2091.000,2032.000,2001.000
3351.128,2038.000,2013.000,1997.000
3356.344,2025.000,2055.000,1990.000
3361.556,2064.000,2052.000,1974.000
3366.764,2071.000,2010.000,1931.000
3371.969,2039.000,2038.000,1986.000
3377.169,2039.000,2065.000,2005.000
3382.367,2034.000,1993.000,1983.000
3387.562,2039.000,1983.000,1985.000
3392.753,2085.000,2051.000,1981.000
3397.940,2032.000,2056.000,1979.000
3403.123,2077.000,2009.000,1968.000
3408.304,2030.000,1964.000,1960.000
3413.481,1984.000,2020.000,1979.000
3418.654,2056.000,1972.000,1958.000
3423.824,1997.000,2005.000,1974.000
3428.990,2037.000,1959.000,1940.000
3434.153,2025.000,1989.000,1969.000
3439.312,2021.000,2040.000,1954.000
3444.469,1993.000,1985.000,1933.000
3449.621,2029.000,1996.000,1943.000
3454.769,1996.000,1968.000,1934.000
3459.915,2009.000,1982.000,1959.000
3465.058,2035.000,1983.000,1952.000
3470.197,2017.000,1977.000,1921.000
3475.331,1991.000,1959.000,1957.000
3480.463,2008.000,1971.000,1970.000
3485.591,2014.000,1935.000,1959.000
3490.717,2013.000,1952.000,1903.000
3495.838,1981.000,1939.000,1953.000
3500.955,2004.000,1967.000,1963.000
3506.070,2020.000,1962.000,1935.000
3511.182,1938.000,1923.000,1929.000
3516.290,1989.000,1943.000,1885.000
3521.394,1987.000,1885.000,1912.000
3526.494,1987.000,1958.000,1931.000
3531.592,2014.000,1945.000,1908.000
3536.687,1939.000,1884.000,1880.000
3541.778,1983.000,1934.000,1883.000
3546.865,1967.000,1949.000,1900.000
3551.948,1981.000,1935.000,1920.000
3557.029,1987.000,1921.000,1860.000
3562.107,1956.000,1930.000,1920.000
3567.181,1949.000,1934.000,1911.000
3572.251,1991.000,1921.000,1896.000
3577.317,1919.000,1913.000,1895.000
3582.381,1932.000,1924.000,1892.000
3587.442,1949.000,1921.000,1897.000
3592.499,1951.000,1919.000,1898.000
3597.553,1955.000,1898.000,1864.000
3602.602,1934.000,1904.000,1858.000
3607.649,1987.000,1886.000,1829.000
3612.693,1972.000,1953.000,1857.000
3617.734,1946.000,1887.000,1841.000
3622.770,1956.000,1890.000,1903.000
3627.803,1910.000,1896.000,1873.000
3632.834,1927.000,1915.000,1865.000
3637.861,1946.000,1859.000,1857.000
3642.885,1890.000,1890.000,1851.000
3647.904,1939.000,1837.000,1857.000
3652.921,1889.000,1894.000,1862.000
3657.935,1924.000,1911.000,1822.000
3662.945,1875.000,1841.000,1871.000
3666.701,1887.000,1877.000,1804.000