File: Raman/Silica/2022_12_08_Qtz_355nm_UnPol_11mW_750mm_600gv_2150wn_iDus_10s_1accum_50x_Mit_UV_Lens.csv
64.816,23056.000
82.386,1011.000
99.935,1625.000
117.462,4091.000
134.967,3343.000
152.452,1678.000
169.913,949.000
187.353,2230.000
204.771,1022.000
222.167,1037.000
239.541,1412.000
256.894,3345.000
274.225,2196.000
291.537,1207.000
308.826,1098.000
326.093,1000.000
343.338,868.000
360.562,844.000
377.765,817.000
394.947,854.000
412.107,1045.000
429.246,823.000
446.367,1078.000
463.464,892.000
480.540,953.000
497.594,1587.000
514.628,14248.000
531.641,1971.000
548.633,1275.000
565.604,1155.000
582.554,1099.000
599.486,1043.000
616.394,966.000
633.282,939.000
650.149,915.000
666.996,915.000
683.822,914.000
700.627,884.000
717.412,893.000
734.176,939.000
750.923,951.000
767.646,911.000
784.349,917.000
801.032,948.000
817.694,934.000
834.336,970.000
850.958,1457.000
867.560,981.000
884.143,960.000
900.705,979.000
917.246,976.000
933.767,992.000
950.269,1012.000
966.750,1020.000
983.211,1023.000
999.652,1002.000
1016.074,1011.000
1032.478,1021.000
1048.860,1035.000
1065.222,1036.000
1081.564,1041.000
1097.887,1068.000
1114.190,1160.000
1130.473,1105.000
1146.737,1044.000
1162.983,1067.000
1179.208,1121.000
1195.413,1468.000
1211.599,1142.000
1227.765,1138.000
1243.912,1152.000
1260.040,1212.000
1276.148,1207.000
1292.237,1179.000
1308.307,1185.000
1324.360,1196.000
1340.391,1225.000
1356.403,1209.000
1372.396,1205.000
1388.371,1216.000
1404.326,1245.000
1420.262,1282.000
1436.179,1348.000
1452.079,1340.000
1467.959,1352.000
1483.819,1378.000
1499.661,1329.000
1515.483,1386.000
1531.287,1403.000
1547.073,1459.000
1562.839,1467.000
1578.587,1498.000
1594.319,1485.000
1610.029,1538.000
1625.721,1519.000
1641.395,1549.000
1657.050,1575.000
1672.687,1560.000
1688.305,1607.000
1703.905,1619.000
1719.488,1614.000
1735.051,1605.000
1750.596,1650.000
1766.123,1628.000
1781.631,1641.000
1797.121,1635.000
1812.593,1710.000
1828.047,1744.000
1843.482,1803.000
1858.902,1809.000
1874.302,1855.000
1889.683,1883.000
1905.047,1858.000
1920.392,1918.000
1935.720,1906.000
1951.030,1942.000
1966.321,2025.000
1981.598,1956.000
1996.854,1974.000
2012.092,1968.000
2027.313,1945.000
2042.516,1975.000
2057.702,1990.000
2072.869,2029.000
2088.019,2013.000
2103.152,2026.000
2118.267,2115.000
2133.367,2153.000
2148.446,2135.000
2163.509,2176.000
2178.554,2209.000
2193.582,2190.000
2208.592,2219.000
2223.585,2298.000
2238.561,2305.000
2253.521,2300.000
2268.462,2332.000
2283.386,2383.000
2298.293,2480.000
2313.183,2457.000
2328.055,2401.000
2342.911,2443.000
2357.749,2438.000
2372.570,2438.000
2387.376,2427.000
2402.164,2452.000
2416.934,2498.000
2431.687,2569.000
2446.424,2531.000
2461.143,2535.000
2475.846,2628.000
2490.532,2615.000
2505.203,2600.000
2519.856,2646.000
2534.492,2721.000
2549.111,2780.000
2563.713,2820.000
2578.299,2861.000
2592.868,2746.000
2607.420,2796.000
2621.956,2794.000
2636.476,2822.000
2650.981,2818.000
2665.467,2864.000
2679.937,2830.000
2694.391,2877.000
2708.828,2883.000
2723.249,2878.000
2737.654,2981.000
2752.044,3000.000
2766.416,2993.000
2780.772,3015.000
2795.111,3031.000
2809.435,3084.000
2823.742,3136.000
2838.033,3089.000
2852.308,3078.000
2866.567,3127.000
2880.810,3193.000
2895.038,3144.000
2909.249,3175.000
2923.444,3212.000
2937.623,3210.000
2951.786,3255.000
2965.933,3222.000
2980.064,3286.000
2994.180,3234.000
3008.281,3260.000
3022.365,3240.000
3036.433,3282.000
3050.485,3258.000
3064.522,3294.000
3078.543,3266.000
3092.548,3339.000
3106.538,3410.000
3120.512,3487.000
3134.472,3475.000
3148.415,3473.000
3162.342,3491.000
3176.254,3511.000
3190.151,3532.000
3204.032,3557.000
3217.897,3589.000
3231.747,3616.000
3245.584,3592.000
3259.403,3592.000
3273.208,3580.000
3286.996,3534.000
3300.770,3612.000
3314.528,3584.000
3328.271,3628.000
3341.999,3579.000
3355.712,3651.000
3369.410,3731.000
3383.094,3764.000
3396.761,3696.000
3410.414,3706.000
3424.051,3746.000
3437.673,3665.000
3451.281,3559.000
3464.873,3704.000
3478.452,3857.000
3492.015,3877.000
3505.562,3945.000
3519.095,3880.000
3532.613,3907.000
3546.116,3924.000
3559.604,4013.000
3573.078,4005.000
3586.537,4068.000
3599.981,4083.000
3613.412,4041.000
3626.826,3946.000
3640.226,4059.000
3653.612,4138.000
3666.983,4436.000
3680.339,4069.000
3693.681,4140.000
3707.008,4035.000
3720.322,4101.000
3733.620,4140.000
3746.904,4220.000
3760.173,4200.000
3773.428,4238.000
3786.668,4219.000
3799.895,4249.000
3813.106,4391.000
3826.304,4335.000
3839.489,4380.000
3852.657,4402.000
3865.812,4447.000
3878.952,4534.000
3892.079,4461.000
3905.191,4460.000
3918.288,4545.000
3931.372,4554.000
3941.177,4506.000