File: Raman/Silica/2022_12_08_Qtz_355nm_UnPol_11mW_750mm_1200gv_1090wn_iDus_10s_1accum_50x_Mit_UV_Lens.csv
31.856,2254.000
40.428,963.000
48.995,2113.000
57.556,3317.000
66.110,2033.000
74.661,848.000
83.207,691.000
91.748,668.000
100.284,686.000
108.814,674.000
117.339,700.000
125.857,682.000
134.372,701.000
142.882,784.000
151.386,1911.000
159.885,832.000
168.380,787.000
176.866,779.000
185.350,763.000
193.829,804.000
202.303,862.000
210.771,1032.000
219.235,1426.000
227.693,2010.000
236.144,1774.000
244.592,1221.000
253.035,1015.000
261.472,898.000
269.905,843.000
278.333,831.000
286.755,1075.000
295.170,757.000
303.583,735.000
311.990,707.000
320.392,705.000
328.790,679.000
337.182,703.000
345.569,695.000
353.948,696.000
362.325,699.000
370.697,745.000
379.064,949.000
387.426,700.000
395.783,699.000
404.134,710.000
412.479,819.000
420.820,758.000
429.157,723.000
437.489,709.000
445.816,794.000
454.137,754.000
462.452,836.000
470.763,1126.000
479.070,3044.000
487.372,6207.000
495.669,1789.000
503.960,1144.000
512.247,1038.000
520.527,977.000
528.804,1151.000
537.076,874.000
545.343,807.000
553.605,758.000
561.862,758.000
570.114,747.000
578.359,743.000
586.601,724.000
594.839,726.000
603.071,716.000
611.299,714.000
619.522,721.000
627.739,718.000
635.950,718.000
644.158,722.000
652.361,712.000
660.559,707.000
668.752,737.000
676.941,714.000
685.122,711.000
693.301,711.000
701.475,725.000
709.644,777.000
717.808,797.000
725.967,739.000
734.121,739.000
742.269,721.000
750.413,719.000
758.553,720.000
766.688,732.000
774.818,725.000
782.944,722.000
791.064,730.000
799.178,738.000
807.289,755.000
815.395,811.000
823.496,1025.000
831.593,863.000
839.685,764.000
847.772,768.000
855.851,756.000
863.929,729.000
872.001,765.000
880.069,739.000
888.132,757.000
896.191,747.000
904.244,750.000
912.291,751.000
920.335,757.000
928.374,749.000
936.409,765.000
944.439,749.000
952.464,743.000
960.482,754.000
968.497,760.000
976.508,751.000
984.515,741.000
992.516,740.000
1000.513,736.000
1008.505,749.000
1016.490,745.000
1024.473,748.000
1032.451,742.000
1040.424,751.000
1048.393,741.000
1056.357,754.000
1064.316,759.000
1072.268,751.000
1080.218,772.000
1088.163,788.000
1096.104,915.000
1104.040,794.000
1111.971,774.000
1119.896,763.000
1127.818,765.000
1135.735,759.000
1143.648,762.000
1151.556,766.000
1159.459,777.000
1167.358,833.000
1175.250,1013.000
1183.140,840.000
1191.025,795.000
1198.905,780.000
1206.781,788.000
1214.652,774.000
1222.519,777.000
1230.379,793.000
1238.236,793.000
1246.089,802.000
1253.937,800.000
1261.781,786.000
1269.620,789.000
1277.454,764.000
1285.282,785.000
1293.108,774.000
1300.929,779.000
1308.745,789.000
1316.557,781.000
1324.364,791.000
1332.167,779.000
1339.963,772.000
1347.756,782.000
1355.545,763.000
1363.330,795.000
1371.110,782.000
1378.886,773.000
1386.657,777.000
1394.421,779.000
1402.183,788.000
1409.941,790.000
1417.694,799.000
1425.442,803.000
1433.186,790.000
1440.924,788.000
1448.659,791.000
1456.389,806.000
1464.116,789.000
1471.837,800.000
1479.555,801.000
1487.267,835.000
1494.973,816.000
1502.677,809.000
1510.377,809.000
1518.072,813.000
1525.762,810.000
1533.448,832.000
1541.128,818.000
1548.805,825.000
1556.478,839.000
1564.146,808.000
1571.810,832.000
1579.470,831.000
1587.125,840.000
1594.773,843.000
1602.420,856.000
1610.062,847.000
1617.699,853.000
1625.332,855.000
1632.961,851.000
1640.585,867.000
1648.203,856.000
1655.819,848.000
1663.430,847.000
1671.037,861.000
1678.639,849.000
1686.238,859.000
1693.831,846.000
1701.419,852.000
1709.004,861.000
1716.585,843.000
1724.161,844.000
1731.733,855.000
1739.301,867.000
1746.864,873.000
1754.421,864.000
1761.976,875.000
1769.526,858.000
1777.072,860.000
1784.614,832.000
1792.152,825.000
1799.685,861.000
1807.212,867.000
1814.736,865.000
1822.256,863.000
1829.772,877.000
1837.284,878.000
1844.792,883.000
1852.295,896.000
1859.791,895.000
1867.286,903.000
1874.776,899.000
1882.262,895.000
1889.744,891.000
1897.222,911.000
1904.693,888.000
1912.162,907.000
1919.627,901.000
1927.087,895.000
1934.544,904.000
1941.996,901.000
1949.444,925.000
1956.885,915.000
1964.324,910.000
1971.760,891.000
1979.191,898.000
1986.617,921.000
1994.040,894.000
2001.456,886.000
2008.870,913.000
2016.280,921.000
2023.686,919.000
2031.087,897.000
2038.485,916.000
2045.878,919.000
2053.265,916.000
2060.650,923.000
2066.186,924.000