File: Raman/Silica/2025_09_12_12pct_Hydrated_SiO2_Glass_on_DAC_Culet_50X_532nm_74mW_Andor750_600gv_3400wn_6accum_30s_DePol_Loc4.csv
2654.492,839.000,865.000,834.000,834.000,851.000,837.000
2664.444,877.000,864.000,847.000,850.000,842.000,837.000
2674.383,868.000,851.000,848.000,853.000,855.000,854.000
2684.311,839.000,871.000,866.000,855.000,840.000,865.000
2694.227,880.000,855.000,853.000,848.000,838.000,852.000
2704.130,872.000,866.000,866.000,837.000,855.000,833.000
2714.020,843.000,843.000,856.000,872.000,862.000,837.000
2723.899,865.000,864.000,876.000,859.000,851.000,851.000
2733.765,859.000,856.000,871.000,849.000,861.000,842.000
2743.620,868.000,866.000,855.000,857.000,852.000,848.000
2753.462,863.000,861.000,847.000,861.000,855.000,846.000
2763.292,872.000,874.000,850.000,859.000,844.000,851.000
2773.111,863.000,856.000,862.000,867.000,852.000,852.000
2782.917,861.000,873.000,853.000,843.000,846.000,845.000
2792.711,856.000,877.000,863.000,853.000,854.000,845.000
2802.494,868.000,870.000,873.000,860.000,851.000,859.000
2812.264,872.000,856.000,859.000,857.000,854.000,844.000
2822.022,868.000,873.000,877.000,875.000,860.000,849.000
2831.768,884.000,869.000,865.000,860.000,860.000,841.000
2841.504,855.000,878.000,862.000,869.000,863.000,848.000
2851.227,869.000,884.000,873.000,853.000,851.000,856.000
2860.937,894.000,897.000,867.000,874.000,865.000,871.000
2870.636,907.000,883.000,894.000,902.000,865.000,883.000
2880.323,902.000,907.000,891.000,895.000,897.000,873.000
2889.998,973.000,952.000,946.000,983.000,965.000,943.000
2899.662,920.000,955.000,944.000,919.000,923.000,912.000
2909.314,932.000,947.000,937.000,932.000,916.000,924.000
2918.955,962.000,957.000,955.000,953.000,958.000,955.000
2928.584,941.000,960.000,921.000,926.000,930.000,911.000
2938.201,923.000,930.000,913.000,915.000,906.000,909.000
2947.805,919.000,926.000,929.000,895.000,917.000,901.000
2957.399,917.000,926.000,919.000,922.000,922.000,904.000
2966.981,941.000,929.000,941.000,927.000,935.000,940.000
2976.552,961.000,957.000,939.000,945.000,928.000,927.000
2986.112,923.000,931.000,926.000,916.000,939.000,914.000
2995.659,928.000,918.000,912.000,910.000,916.000,924.000
3005.195,924.000,912.000,914.000,933.000,898.000,901.000
3014.719,916.000,930.000,905.000,928.000,910.000,909.000
3024.231,919.000,916.000,914.000,918.000,910.000,896.000
3033.733,941.000,925.000,898.000,911.000,914.000,898.000
3043.222,927.000,921.000,917.000,916.000,914.000,915.000
3052.700,928.000,908.000,912.000,915.000,912.000,909.000
3062.168,931.000,924.000,925.000,937.000,912.000,923.000
3071.625,924.000,934.000,946.000,936.000,930.000,902.000
3081.068,944.000,943.000,920.000,934.000,916.000,940.000
3090.502,935.000,942.000,936.000,950.000,923.000,940.000
3099.923,957.000,928.000,946.000,939.000,937.000,921.000
3109.333,962.000,983.000,944.000,942.000,916.000,923.000
3118.732,956.000,942.000,976.000,950.000,947.000,930.000
3128.121,957.000,965.000,931.000,951.000,984.000,952.000
3137.497,990.000,961.000,963.000,931.000,952.000,951.000
3146.863,973.000,987.000,951.000,991.000,955.000,989.000
3156.217,966.000,993.000,989.000,971.000,985.000,951.000
3165.560,1008.000,987.000,985.000,980.000,974.000,947.000
3174.892,1003.000,998.000,984.000,1002.000,978.000,980.000
3184.212,1020.000,1004.000,1002.000,1006.000,1010.000,975.000
3193.522,1009.000,1033.000,1014.000,1001.000,999.000,1009.000
3202.821,1047.000,1017.000,1030.000,1023.000,1020.000,1038.000
3212.109,1034.000,1055.000,1021.000,1039.000,1006.000,1002.000
3221.385,1024.000,1037.000,1046.000,1034.000,1038.000,1043.000
3230.650,1059.000,1049.000,1057.000,1055.000,1062.000,1041.000
3239.904,1053.000,1064.000,1062.000,1083.000,1040.000,1050.000
3249.148,1060.000,1054.000,1050.000,1058.000,1060.000,1028.000
3258.381,1076.000,1083.000,1039.000,1068.000,1067.000,1059.000
3267.603,1112.000,1080.000,1102.000,1066.000,1067.000,1041.000
3276.813,1084.000,1110.000,1100.000,1074.000,1084.000,1064.000
3286.013,1093.000,1105.000,1091.000,1066.000,1090.000,1082.000
3295.200,1116.000,1099.000,1091.000,1109.000,1121.000,1095.000
3304.379,1110.000,1140.000,1116.000,1078.000,1116.000,1099.000
3313.545,1147.000,1106.000,1118.000,1079.000,1098.000,1102.000
3322.701,1123.000,1121.000,1125.000,1125.000,1127.000,1129.000
3331.848,1142.000,1166.000,1145.000,1107.000,1150.000,1111.000
3340.982,1160.000,1169.000,1133.000,1137.000,1162.000,1103.000
3350.105,1144.000,1174.000,1197.000,1150.000,1148.000,1159.000
3359.218,1195.000,1187.000,1173.000,1174.000,1165.000,1159.000
3368.321,1207.000,1217.000,1169.000,1178.000,1178.000,1156.000
3377.412,1192.000,1218.000,1186.000,1194.000,1215.000,1188.000
3386.492,1216.000,1203.000,1221.000,1201.000,1170.000,1213.000
3395.562,1215.000,1212.000,1207.000,1207.000,1201.000,1199.000
3404.623,1208.000,1208.000,1205.000,1218.000,1221.000,1215.000
3413.672,1221.000,1233.000,1255.000,1273.000,1232.000,1223.000
3422.709,1247.000,1256.000,1252.000,1230.000,1239.000,1209.000
3431.737,1261.000,1269.000,1252.000,1246.000,1254.000,1276.000
3440.753,1267.000,1259.000,1250.000,1270.000,1234.000,1250.000
3449.759,1240.000,1239.000,1264.000,1289.000,1251.000,1262.000
3458.755,1262.000,1276.000,1260.000,1279.000,1285.000,1242.000
3467.740,1279.000,1275.000,1272.000,1251.000,1282.000,1246.000
3476.716,1285.000,1279.000,1259.000,1267.000,1265.000,1241.000
3485.680,1264.000,1240.000,1266.000,1274.000,1263.000,1247.000
3494.634,1264.000,1281.000,1250.000,1261.000,1239.000,1252.000
3503.577,1239.000,1245.000,1285.000,1267.000,1277.000,1253.000
3512.509,1258.000,1248.000,1249.000,1245.000,1261.000,1262.000
3521.431,1250.000,1234.000,1246.000,1247.000,1257.000,1232.000
3530.343,1256.000,1230.000,1229.000,1225.000,1240.000,1222.000
3539.246,1240.000,1234.000,1232.000,1244.000,1230.000,1227.000
3548.137,1230.000,1202.000,1260.000,1220.000,1195.000,1202.000
3557.017,1240.000,1208.000,1202.000,1201.000,1214.000,1201.000
3565.888,1214.000,1200.000,1207.000,1222.000,1193.000,1197.000
3574.749,1214.000,1216.000,1216.000,1210.000,1211.000,1180.000
3583.597,1241.000,1232.000,1203.000,1223.000,1205.000,1195.000
3592.437,1238.000,1212.000,1262.000,1212.000,1207.000,1191.000
3601.268,1214.000,1211.000,1212.000,1204.000,1200.000,1186.000
3610.086,1188.000,1187.000,1168.000,1186.000,1196.000,1187.000
3618.896,1186.000,1160.000,1171.000,1140.000,1151.000,2706.000
3627.694,1189.000,1155.000,1170.000,1155.000,1123.000,1156.000
3636.482,1170.000,1149.000,1163.000,1169.000,1147.000,1146.000
3645.260,1130.000,1144.000,1137.000,1131.000,1144.000,1151.000
3654.029,1133.000,1140.000,1132.000,1117.000,1133.000,1117.000
3662.786,1133.000,1126.000,1102.000,1098.000,1093.000,1081.000
3671.535,1063.000,1083.000,1057.000,1071.000,1051.000,1066.000
3680.272,1036.000,1036.000,1042.000,1019.000,1006.000,1012.000
3689.000,984.000,979.000,989.000,979.000,952.000,946.000
3697.717,922.000,938.000,930.000,923.000,924.000,915.000
3706.425,923.000,895.000,904.000,902.000,885.000,896.000
3715.122,878.000,889.000,896.000,875.000,895.000,872.000
3723.809,862.000,841.000,879.000,864.000,849.000,843.000
3732.487,862.000,875.000,858.000,853.000,851.000,836.000
3741.155,860.000,853.000,872.000,839.000,852.000,857.000
3749.813,859.000,846.000,853.000,859.000,850.000,848.000
3758.460,855.000,852.000,848.000,846.000,843.000,832.000
3767.097,869.000,846.000,843.000,860.000,819.000,821.000
3775.724,837.000,860.000,842.000,831.000,841.000,822.000
3784.343,846.000,845.000,856.000,843.000,838.000,835.000
3792.950,839.000,835.000,825.000,839.000,831.000,831.000
3801.550,843.000,833.000,826.000,831.000,821.000,812.000
3810.138,833.000,836.000,842.000,826.000,825.000,826.000
3818.715,827.000,839.000,847.000,831.000,819.000,816.000
3827.284,838.000,846.000,846.000,830.000,824.000,824.000
3835.842,855.000,839.000,838.000,836.000,812.000,836.000
3844.392,827.000,851.000,829.000,822.000,819.000,817.000
3852.931,844.000,825.000,833.000,832.000,835.000,819.000
3861.461,835.000,837.000,835.000,823.000,826.000,811.000
3869.981,832.000,843.000,824.000,828.000,830.000,834.000
3878.490,829.000,843.000,839.000,816.000,827.000,828.000
3886.991,841.000,841.000,835.000,824.000,832.000,840.000
3895.481,827.000,828.000,837.000,821.000,834.000,820.000
3903.962,845.000,844.000,822.000,842.000,831.000,825.000
3912.433,843.000,841.000,826.000,826.000,832.000,833.000
3920.897,839.000,827.000,839.000,834.000,807.000,815.000
3929.348,862.000,831.000,823.000,831.000,833.000,829.000
3937.791,839.000,829.000,827.000,838.000,828.000,840.000
3946.223,847.000,830.000,813.000,827.000,828.000,832.000
3954.647,834.000,830.000,819.000,818.000,838.000,829.000
3963.060,832.000,831.000,827.000,832.000,818.000,812.000
3971.464,866.000,844.000,838.000,824.000,839.000,824.000
3979.859,837.000,829.000,839.000,834.000,831.000,836.000
3988.245,842.000,844.000,847.000,844.000,846.000,831.000
3989.441,853.000,844.000,863.000,829.000,841.000,858.000