File: Raman/Silica/2025_08_22_BB1392_SiO2_8wtPctH2O_Glass_50X_532nm_750uW_Kymera328_600gv_2050wn_3accum_60s_Unpol.csv
82.904,3911.000,3881.000,3863.000
100.010,3775.000,3785.000,3778.000
117.084,3727.000,3718.000,3692.000
134.127,3640.000,3653.000,3639.000
151.140,3566.000,3585.000,3587.000
168.121,3563.000,3552.000,3566.000
185.071,3548.000,3551.000,3535.000
201.991,3517.000,3526.000,3509.000
218.880,3483.000,3515.000,3499.000
235.739,3503.000,3504.000,3510.000
252.567,3517.000,3521.000,3506.000
269.365,3516.000,3495.000,3507.000
286.132,3532.000,3539.000,3534.000
302.868,3564.000,3538.000,3553.000
319.575,3576.000,3577.000,3538.000
336.249,3555.000,3601.000,3588.000
352.895,3607.000,3624.000,3618.000
369.512,3636.000,3650.000,3640.000
386.098,3659.000,3659.000,3669.000
402.656,3692.000,3686.000,3660.000
419.182,3754.000,3727.000,3728.000
435.679,3731.000,3776.000,3743.000
452.147,3843.000,3804.000,3808.000
468.585,3859.000,3867.000,3824.000
484.994,3855.000,3857.000,3819.000
501.371,3774.000,3727.000,3748.000
517.721,3569.000,3592.000,3557.000
534.042,3474.000,3467.000,3497.000
550.333,3407.000,3415.000,3456.000
566.596,3366.000,3394.000,3370.000
582.829,3367.000,3352.000,3365.000
599.034,3344.000,3331.000,3347.000
615.210,3331.000,3338.000,3324.000
631.358,3310.000,3316.000,3313.000
647.475,3301.000,3305.000,3289.000
663.565,3307.000,3300.000,3309.000
679.626,3298.000,3289.000,3287.000
695.659,3268.000,3280.000,3283.000
711.664,3296.000,3269.000,3291.000
727.641,3293.000,3295.000,3262.000
743.588,3306.000,3279.000,3281.000
759.509,3288.000,3300.000,3302.000
775.401,3316.000,3312.000,3314.000
791.265,3326.000,3350.000,3348.000
807.100,3337.000,3327.000,3340.000
822.908,3316.000,3317.000,3327.000
838.688,3297.000,3278.000,3303.000
854.441,3280.000,3281.000,3288.000
870.167,3274.000,3285.000,3290.000
885.864,3272.000,3280.000,3282.000
901.535,3299.000,3287.000,3275.000
917.178,3311.000,3336.000,3318.000
932.794,3309.000,3324.000,3342.000
948.382,3361.000,3371.000,3386.000
963.942,3390.000,3406.000,3391.000
979.475,3400.000,3383.000,3363.000
994.983,3376.000,3351.000,3348.000
1010.462,3322.000,3310.000,3339.000
1025.915,3333.000,3311.000,3322.000
1041.342,3326.000,3332.000,3319.000
1056.741,3334.000,3322.000,3326.000
1072.115,3331.000,3319.000,3327.000
1087.461,3333.000,3333.000,3320.000
1102.779,3310.000,3321.000,3312.000
1118.072,3313.000,3298.000,3302.000
1133.339,3314.000,3320.000,3302.000
1148.579,3310.000,3328.000,3296.000
1163.793,3308.000,3316.000,3322.000
1178.982,3306.000,3311.000,3322.000
1194.142,3320.000,3307.000,3293.000
1209.279,3309.000,3307.000,3299.000
1224.388,3309.000,3302.000,3274.000
1239.472,3294.000,3292.000,3296.000
1254.528,3326.000,3292.000,3295.000
1269.561,3305.000,3293.000,3310.000
1284.567,3310.000,3297.000,3297.000
1299.548,3285.000,3307.000,3301.000
1314.503,3298.000,3282.000,3289.000
1329.432,3307.000,3297.000,3304.000
1344.337,3288.000,3289.000,3288.000
1359.216,3308.000,3313.000,3308.000
1374.068,3318.000,3300.000,3314.000
1388.895,3317.000,3318.000,3311.000
1403.698,3320.000,3296.000,3307.000
1418.476,3327.000,3304.000,3319.000
1433.228,3327.000,3310.000,3309.000
1447.956,3338.000,3323.000,3332.000
1462.658,3329.000,3322.000,3324.000
1477.336,3339.000,3327.000,3307.000
1491.989,3348.000,3323.000,3328.000
1506.618,3305.000,3343.000,3318.000
1521.221,3322.000,3333.000,3354.000
1535.799,3342.000,3352.000,3335.000
1550.351,3347.000,3349.000,3339.000
1564.881,3343.000,3356.000,3325.000
1579.386,3344.000,3329.000,3368.000
1593.867,3338.000,3347.000,3342.000
1608.324,3356.000,3353.000,3358.000
1622.756,3360.000,3346.000,3355.000
1637.164,3363.000,3371.000,3335.000
1651.548,3345.000,3342.000,3361.000
1665.907,3335.000,3369.000,3372.000
1680.242,3363.000,3351.000,3355.000
1694.554,3351.000,3361.000,3352.000
1708.841,3359.000,3370.000,3389.000
1723.105,3357.000,3356.000,3348.000
1737.346,3340.000,3342.000,3357.000
1751.561,3335.000,3384.000,3358.000
1765.755,3370.000,3353.000,3360.000
1779.923,4033.000,3347.000,3356.000
1794.069,3363.000,3378.000,3361.000
1808.191,3366.000,3354.000,3376.000
1822.288,3369.000,3377.000,3371.000
1836.363,3368.000,3361.000,3366.000
1850.415,3378.000,3361.000,3380.000
1864.444,3364.000,3362.000,3366.000
1878.449,3380.000,3382.000,3368.000
1892.432,3398.000,3389.000,3655.000
1906.391,3383.000,3376.000,3392.000
1920.327,3377.000,3405.000,3396.000
1934.240,3411.000,3406.000,3404.000
1948.128,3391.000,3401.000,3383.000
1961.996,3392.000,3392.000,3390.000
1975.841,3417.000,3415.000,3374.000
1989.663,3393.000,3385.000,3398.000
2003.462,3406.000,3400.000,3390.000
2017.238,3406.000,3401.000,3402.000
2030.993,3396.000,3420.000,3411.000
2044.724,3407.000,3414.000,3390.000
2058.433,3431.000,3398.000,3399.000
2072.120,3422.000,3424.000,3427.000
2085.784,3429.000,3420.000,3416.000
2099.424,3430.000,3429.000,3425.000
2113.044,3416.000,3410.000,3424.000
2126.641,3423.000,3420.000,3419.000
2140.216,3399.000,3429.000,3420.000
2153.769,3430.000,3398.000,3432.000
2167.300,3467.000,3422.000,3415.000
2180.810,3423.000,3428.000,3450.000
2194.297,3423.000,3422.000,3413.000
2207.760,3446.000,3427.000,3449.000
2221.204,3438.000,3424.000,3426.000
2234.625,3443.000,3441.000,3442.000
2248.026,3452.000,3457.000,3414.000
2261.404,3460.000,3457.000,3444.000
2274.761,3476.000,3444.000,3453.000
2288.096,3461.000,3452.000,3450.000
2301.409,3455.000,3453.000,3456.000
2314.702,3473.000,3478.000,3467.000
2327.973,3479.000,3468.000,3463.000
2341.222,3477.000,3481.000,3474.000
2354.449,3496.000,3494.000,3494.000
2367.656,3482.000,3475.000,3494.000
2380.842,3495.000,3487.000,3485.000
2394.006,3510.000,3472.000,3507.000
2407.149,3466.000,3481.000,3491.000
2420.272,3491.000,3512.000,3477.000
2433.373,3515.000,3495.000,3484.000
2446.454,3491.000,3503.000,3491.000
2459.512,3518.000,3506.000,3484.000
2472.550,3505.000,3500.000,3501.000
2485.569,3501.000,3498.000,3511.000
2498.566,3487.000,3518.000,3506.000
2511.543,3500.000,3497.000,3507.000
2524.498,3487.000,3502.000,3499.000
2537.433,3522.000,3513.000,3542.000
2550.348,3520.000,3495.000,3520.000
2563.243,3534.000,3523.000,3530.000
2576.116,3511.000,3523.000,3529.000
2588.969,3538.000,3532.000,3537.000
2601.800,3537.000,3528.000,3527.000
2614.613,3560.000,3536.000,3550.000
2627.406,3547.000,3537.000,3552.000
2640.178,3539.000,3528.000,3523.000
2652.930,3566.000,3532.000,3531.000
2665.662,3564.000,3520.000,3567.000
2678.374,3552.000,3587.000,3542.000
2691.067,3556.000,3564.000,3553.000
2703.738,3563.000,3574.000,3547.000
2716.388,3550.000,3569.000,3582.000
2729.020,3578.000,3585.000,3572.000
2741.633,3594.000,3579.000,3551.000
2754.225,3566.000,3566.000,3557.000
2766.798,3586.000,3581.000,3557.000
2779.351,3598.000,3581.000,3592.000
2791.885,3611.000,3574.000,3610.000
2804.398,3603.000,3590.000,3562.000
2816.893,3612.000,3605.000,3608.000
2829.368,3597.000,3618.000,3585.000
2841.821,3644.000,3592.000,3632.000
2854.258,3613.000,3628.000,3623.000
2866.673,3670.000,3623.000,3614.000
2879.070,3612.000,3655.000,3630.000
2891.449,3660.000,3661.000,3642.000
2903.807,3625.000,3647.000,3671.000
2916.147,3671.000,3638.000,3670.000
2928.468,3675.000,3662.000,3663.000
2940.768,3679.000,3672.000,3681.000
2953.049,3695.000,3692.000,3702.000
2965.312,3678.000,3668.000,3695.000
2977.557,3675.000,3717.000,3668.000
2989.781,3699.000,3693.000,3670.000
3001.989,3716.000,3716.000,3697.000
3014.176,3707.000,3712.000,3705.000
3026.345,3742.000,3752.000,3742.000
3038.494,3758.000,3776.000,3738.000
3050.626,3725.000,3769.000,3775.000
3062.739,3713.000,3727.000,3754.000
3074.832,3795.000,3786.000,3756.000
3086.907,3787.000,3764.000,3762.000
3098.964,3763.000,3798.000,3759.000
3111.002,3780.000,3763.000,3803.000
3123.022,3790.000,3781.000,3797.000
3135.023,3824.000,3794.000,3789.000
3147.006,3787.000,3795.000,3828.000
3158.971,3823.000,3824.000,3817.000
3170.918,3844.000,3828.000,3845.000
3182.844,3864.000,3840.000,3822.000
3194.755,3811.000,3857.000,3879.000
3206.647,3846.000,3868.000,3841.000
3218.521,3855.000,3901.000,3877.000
3230.377,3887.000,3907.000,3889.000
3242.215,3910.000,3899.000,3870.000
3254.035,3910.000,3915.000,3866.000
3265.836,3959.000,3895.000,3903.000
3277.621,3904.000,3951.000,3933.000
3289.387,3922.000,3943.000,3983.000
3301.134,3929.000,3961.000,3948.000
3312.863,4001.000,3990.000,3972.000
3324.577,4030.000,3959.000,3965.000
3336.272,4006.000,3955.000,3950.000
3347.948,4028.000,3982.000,3966.000
3359.608,3992.000,3992.000,4012.000
3371.250,3972.000,3964.000,4017.000
3382.875,4052.000,4031.000,4012.000
3394.482,4039.000,4043.000,4029.000
3406.072,4058.000,4068.000,4048.000
3417.643,4055.000,4089.000,4117.000
3429.197,4071.000,4029.000,4061.000
3440.735,4100.000,4078.000,4063.000
3452.255,4086.000,4119.000,4109.000
3463.758,4113.000,4080.000,4087.000
3475.244,4092.000,4132.000,4111.000
3486.712,4140.000,4117.000,4132.000
3498.162,4133.000,4137.000,4144.000
3509.597,4097.000,4155.000,4082.000
3521.015,4165.000,4125.000,4159.000
3532.413,4153.000,4163.000,4165.000
3543.796,4136.000,4173.000,4206.000
3555.162,4204.000,4198.000,4189.000
3566.511,4253.000,4224.000,4223.000
3577.843,4274.000,4287.000,4314.000
3589.158,4295.000,4315.000,4276.000
3600.458,4304.000,4329.000,4322.000
3611.739,4298.000,4334.000,4368.000
3623.004,4293.000,4271.000,4317.000
3631.442,4328.000,4327.000,4276.000