File: Raman/Silica/2025_08_22_Nat_SiO2_Glass_XRD_50X_532nm_74mW_Andor750_600gv_2200wn_3accum_10s_UnPol_Pos7.csv
1327.239,1046.000,1091.000,1099.000
1333.927,1077.000,1079.000,1098.000
1340.610,1073.000,1088.000,1079.000
1347.288,1069.000,1096.000,1079.000
1353.960,1066.000,1090.000,1090.000
1360.628,1046.000,1086.000,1079.000
1367.290,1075.000,1082.000,1066.000
1373.948,1062.000,1090.000,1098.000
1380.601,1070.000,1086.000,1104.000
1387.249,1061.000,1075.000,1083.000
1393.889,1085.000,1102.000,1082.000
1400.527,1073.000,1095.000,1096.000
1407.159,1036.000,1053.000,1089.000
1413.787,1043.000,1114.000,1066.000
1420.408,1081.000,1082.000,1101.000
1427.027,1090.000,1104.000,1122.000
1433.637,1074.000,1092.000,1086.000
1440.244,1072.000,1100.000,1064.000
1446.846,1070.000,1100.000,1080.000
1453.444,1085.000,1109.000,1093.000
1460.035,1079.000,1100.000,1099.000
1466.623,1065.000,1097.000,1108.000
1473.203,1086.000,1103.000,1112.000
1479.780,1104.000,1082.000,1093.000
1486.352,1099.000,1083.000,1105.000
1492.919,1078.000,1102.000,1095.000
1499.481,1112.000,1114.000,1131.000
1506.039,1099.000,1138.000,1158.000
1512.591,1104.000,1139.000,1117.000
1519.137,1101.000,1124.000,1126.000
1525.678,1112.000,1128.000,1110.000
1532.216,1114.000,1121.000,1146.000
1538.748,1105.000,1108.000,1154.000
1545.276,1117.000,1123.000,1147.000
1551.798,1115.000,1137.000,1126.000
1558.314,1122.000,1170.000,1170.000
1564.828,1146.000,1154.000,1197.000
1571.335,1151.000,1180.000,1196.000
1577.838,1180.000,1163.000,1166.000
1584.335,1164.000,1170.000,1189.000
1590.829,1154.000,1172.000,1182.000
1597.316,1150.000,1193.000,1197.000
1603.799,1157.000,1192.000,1193.000
1610.276,1181.000,1212.000,1179.000
1616.750,1180.000,1172.000,1191.000
1623.219,1171.000,1199.000,1210.000
1629.682,1173.000,1214.000,1177.000
1636.140,1167.000,1178.000,1204.000
1642.594,1165.000,1198.000,1171.000
1649.042,1163.000,1182.000,1176.000
1655.487,1164.000,1168.000,1188.000
1661.926,1140.000,1196.000,1162.000
1668.361,1142.000,1195.000,1170.000
1674.789,1159.000,1160.000,1186.000
1681.214,1133.000,1127.000,1185.000
1687.634,1136.000,1138.000,1151.000
1694.050,1144.000,1152.000,1179.000
1700.461,1112.000,1152.000,1149.000
1706.866,1099.000,1130.000,1157.000
1713.268,1123.000,1136.000,1150.000
1719.661,1135.000,1163.000,1138.000
1726.052,1105.000,1106.000,1175.000
1732.439,1096.000,1133.000,1129.000
1738.821,1129.000,1125.000,1151.000
1745.198,1100.000,1128.000,1152.000
1751.570,1102.000,1128.000,1138.000
1757.936,1110.000,1133.000,1123.000
1764.299,1092.000,1120.000,1125.000
1770.657,1109.000,1099.000,1112.000
1777.011,1095.000,1120.000,1123.000
1783.359,1101.000,1121.000,1152.000
1789.702,1107.000,1126.000,1121.000
1796.040,1091.000,1122.000,1128.000
1802.374,1110.000,1137.000,1124.000
1808.704,1078.000,1121.000,1124.000
1815.028,1083.000,1133.000,1101.000
1821.349,1088.000,1131.000,1116.000
1827.664,1084.000,1123.000,1103.000
1833.974,1111.000,1102.000,1134.000
1840.279,1104.000,1098.000,1118.000
1846.581,1112.000,1141.000,1127.000
1852.877,1105.000,1151.000,1133.000
1859.170,1086.000,1148.000,1120.000
1865.457,1098.000,1133.000,1133.000
1871.740,1120.000,1138.000,1114.000
1878.016,1130.000,1125.000,1148.000
1884.290,1119.000,1131.000,1120.000
1890.559,1112.000,1116.000,1128.000
1896.822,1095.000,1140.000,1138.000
1903.082,1118.000,1137.000,1142.000
1909.337,1116.000,1095.000,1136.000
1915.586,1123.000,1150.000,1172.000
1921.830,1133.000,1117.000,1112.000
1928.071,1123.000,1154.000,1147.000
1934.308,1117.000,1141.000,1111.000
1940.539,1105.000,1153.000,1139.000
1946.766,1130.000,1139.000,1152.000
1952.988,1102.000,1132.000,1136.000
1959.205,1114.000,1139.000,1115.000
1965.420,1124.000,1151.000,1122.000
1971.628,1102.000,1155.000,1163.000
1977.832,1115.000,1147.000,1147.000
1984.032,1137.000,1145.000,1144.000
1990.225,1119.000,1154.000,1164.000
1996.415,1134.000,1166.000,1116.000
2002.602,1119.000,1145.000,1173.000
2008.783,1122.000,1144.000,1156.000
2014.960,1146.000,1167.000,1144.000
2021.131,1139.000,1148.000,1155.000
2027.300,1132.000,1162.000,1154.000
2033.461,1144.000,1151.000,1147.000
2039.619,1139.000,1140.000,1151.000
2045.774,1147.000,1184.000,1144.000
2051.923,1129.000,1142.000,1182.000
2058.069,1149.000,1143.000,1163.000
2064.210,1141.000,1140.000,1188.000
2070.344,1136.000,1140.000,1132.000
2076.475,1126.000,1165.000,1172.000
2082.602,1147.000,1148.000,1184.000
2088.726,1125.000,1168.000,1173.000
2094.843,1128.000,1159.000,1168.000
2100.957,1155.000,1174.000,1140.000
2107.064,1151.000,1170.000,1177.000
2113.169,1133.000,1160.000,1142.000
2119.269,1157.000,1168.000,1160.000
2125.365,1158.000,1167.000,1168.000
2131.457,1155.000,1176.000,1172.000
2137.543,1172.000,1157.000,1170.000
2143.625,1147.000,1168.000,1166.000
2149.703,1144.000,1172.000,1159.000
2155.776,1141.000,1170.000,1157.000
2161.845,1151.000,1169.000,1147.000
2167.910,1147.000,1183.000,1127.000
2173.970,1140.000,1161.000,1204.000
2180.025,1153.000,1162.000,1188.000
2186.076,1127.000,1152.000,1183.000
2192.123,1156.000,1161.000,1149.000
2198.165,1138.000,1141.000,1161.000
2204.204,1139.000,1163.000,1186.000
2210.238,1133.000,1165.000,1150.000
2216.267,1146.000,1170.000,1176.000
2222.290,1134.000,1169.000,1183.000
2228.311,1142.000,1167.000,1169.000
2234.327,1156.000,1152.000,1190.000
2240.340,1139.000,1164.000,1139.000
2246.347,1131.000,1158.000,1142.000
2252.351,1166.000,1179.000,1160.000
2258.347,1150.000,1180.000,1158.000
2264.343,1167.000,1150.000,1204.000
2270.332,1164.000,1177.000,1175.000
2276.318,1149.000,1176.000,1188.000
2282.300,1171.000,1173.000,1156.000
2288.278,1157.000,1161.000,1193.000
2294.249,1151.000,1156.000,1174.000
2300.217,1143.000,1198.000,1148.000
2306.181,1155.000,1163.000,1208.000
2312.142,1136.000,1174.000,1192.000
2318.098,1166.000,1194.000,1193.000
2324.049,1146.000,1175.000,1170.000
2329.995,1157.000,1170.000,1185.000
2335.937,1180.000,1201.000,1219.000
2341.875,1239.000,1216.000,1228.000
2347.809,1152.000,1191.000,1194.000
2353.739,1171.000,1196.000,1196.000
2359.665,1167.000,1179.000,1160.000
2365.587,1165.000,1192.000,1194.000
2371.502,1145.000,1179.000,1184.000
2377.415,1171.000,1186.000,1191.000
2383.323,1173.000,1178.000,1220.000
2389.227,1173.000,1204.000,1208.000
2395.127,1185.000,1174.000,1188.000
2401.024,1176.000,1207.000,1206.000
2406.913,1128.000,1202.000,1207.000
2412.800,1159.000,1190.000,1237.000
2418.684,1176.000,1165.000,1167.000
2424.563,1199.000,1186.000,1187.000
2430.437,1152.000,1162.000,1211.000
2436.308,1177.000,1187.000,1190.000
2442.173,1139.000,1185.000,1173.000
2448.034,1157.000,1147.000,1198.000
2453.892,1155.000,1195.000,1191.000
2459.746,1171.000,1192.000,1188.000
2465.596,1151.000,1211.000,1203.000
2471.441,1144.000,1197.000,1186.000
2477.283,1165.000,1174.000,1198.000
2483.117,1169.000,1190.000,1186.000
2488.951,1170.000,1190.000,1155.000
2494.779,1155.000,1175.000,1230.000
2500.603,1146.000,1214.000,1169.000
2506.424,1163.000,1191.000,1206.000
2512.239,1142.000,1216.000,1183.000
2518.050,1175.000,1173.000,1203.000
2523.858,1163.000,1200.000,1181.000
2529.661,1163.000,1204.000,1193.000
2535.461,1181.000,1148.000,1195.000
2541.256,1159.000,1204.000,1174.000
2547.048,1189.000,1169.000,1184.000
2552.834,1181.000,1188.000,1195.000
2558.616,1166.000,1181.000,1192.000
2564.395,1178.000,1181.000,1193.000
2570.170,1193.000,1193.000,1203.000
2575.941,1167.000,1196.000,1189.000
2581.707,1168.000,1181.000,1186.000
2587.469,1161.000,1218.000,1209.000
2593.226,1178.000,1220.000,1171.000
2598.981,1175.000,1178.000,1190.000
2604.732,1192.000,1187.000,1178.000
2610.478,1172.000,1173.000,1214.000
2616.220,1173.000,1208.000,1214.000
2621.958,1157.000,1203.000,1211.000
2627.690,1189.000,1180.000,1213.000
2633.420,1192.000,1191.000,1200.000
2639.145,1169.000,1223.000,1213.000
2644.867,1190.000,1246.000,1184.000
2650.585,1168.000,1205.000,1200.000
2656.297,1190.000,1246.000,1228.000
2662.007,1185.000,1210.000,1207.000
2667.713,1218.000,1196.000,1229.000
2673.415,1169.000,1251.000,1213.000
2679.112,1217.000,1201.000,1203.000
2684.805,1187.000,1222.000,1200.000
2690.495,1211.000,1235.000,1212.000
2696.178,1202.000,1211.000,1206.000
2701.859,1242.000,1224.000,1247.000
2707.537,1208.000,1216.000,1210.000
2713.211,1161.000,1240.000,1221.000
2718.881,1169.000,1239.000,1172.000
2724.545,1208.000,1223.000,1221.000
2730.205,1198.000,1201.000,1219.000
2735.863,1157.000,1219.000,1192.000
2741.516,1201.000,1239.000,1229.000
2747.166,1208.000,1223.000,1182.000
2752.811,1219.000,1231.000,1226.000
2758.452,1188.000,1215.000,1224.000
2764.089,1229.000,1203.000,1215.000
2769.723,1186.000,1212.000,1191.000
2775.352,1175.000,1234.000,1208.000
2780.978,1200.000,1241.000,1210.000
2786.599,1197.000,1237.000,1199.000
2792.218,1218.000,1201.000,1213.000
2797.830,1202.000,1233.000,1187.000
2803.440,1171.000,1206.000,1216.000
2809.045,1221.000,1235.000,1216.000
2814.648,1235.000,1247.000,1237.000
2820.246,1194.000,1225.000,1223.000
2825.841,1190.000,1222.000,1197.000
2831.431,1215.000,1215.000,1211.000
2837.015,1213.000,1221.000,1271.000
2842.599,1222.000,1251.000,1224.000
2848.177,1204.000,1264.000,1232.000
2853.751,1231.000,1243.000,1270.000
2859.322,1233.000,1244.000,1258.000
2864.889,1238.000,1243.000,1234.000
2870.451,1220.000,1227.000,1238.000
2876.010,1238.000,1283.000,1256.000
2881.565,1229.000,1265.000,1247.000
2885.729,1254.000,1247.000,1280.000