File: Raman/Silica/2025_08_22_AbNTS_MA10_S21_10GPa_Glass_50X_532nm_12mW_Andor750_600gv_26000wn_3accum_30s_UnPol_Pos1.csv
1770.807,2123.000,2091.000,2080.000
1777.152,2183.000,2146.000,2074.000
1783.493,2170.000,2116.000,2073.000
1789.828,2132.000,2099.000,2088.000
1796.160,2180.000,2109.000,2075.000
1802.485,2175.000,2114.000,2102.000
1808.807,2185.000,2093.000,2103.000
1815.124,2177.000,2083.000,2112.000
1821.437,2150.000,2128.000,2078.000
1827.743,2148.000,2074.000,2096.000
1834.047,2152.000,2154.000,2137.000
1840.344,2132.000,2171.000,2112.000
1846.639,2194.000,2115.000,2108.000
1852.926,2164.000,2093.000,2125.000
1859.212,2179.000,2133.000,2103.000
1865.490,2220.000,2155.000,2161.000
1871.766,2202.000,2126.000,2157.000
1878.035,2215.000,2165.000,2129.000
1884.301,2169.000,2138.000,2155.000
1890.562,2220.000,2195.000,2099.000
1896.818,2279.000,2166.000,2169.000
1903.070,2210.000,2134.000,2192.000
1909.316,2225.000,2180.000,2142.000
1915.559,2193.000,2183.000,2118.000
1921.796,2197.000,2199.000,2139.000
1928.031,2206.000,2172.000,2183.000
1934.258,2272.000,2196.000,2179.000
1940.482,2214.000,2150.000,2190.000
1946.701,2232.000,2139.000,2158.000
1952.917,2227.000,2183.000,2150.000
1959.126,2264.000,2193.000,2148.000
1965.332,2253.000,2192.000,2173.000
1971.533,2249.000,2195.000,2180.000
1977.731,2246.000,2203.000,2173.000
1983.922,2260.000,2235.000,2147.000
1990.109,2300.000,2189.000,2221.000
1996.292,2244.000,2222.000,2162.000
2002.471,2206.000,2242.000,2190.000
2008.643,2275.000,2213.000,2189.000
2014.813,2320.000,2195.000,2189.000
2020.978,2288.000,2214.000,2198.000
2027.138,2338.000,2234.000,2208.000
2033.293,2278.000,2228.000,2197.000
2039.443,2319.000,2216.000,2213.000
2045.590,2247.000,2244.000,2214.000
2051.732,2315.000,2206.000,2207.000
2057.871,2329.000,2248.000,2213.000
2064.002,2323.000,2265.000,2223.000
2070.132,2301.000,2274.000,2180.000
2076.255,2291.000,2229.000,2240.000
2082.376,2322.000,2235.000,2220.000
2088.490,2290.000,2245.000,2242.000
2094.601,2299.000,2272.000,2238.000
2100.707,2370.000,2235.000,2251.000
2106.810,2326.000,2321.000,2229.000
2112.906,2315.000,2306.000,2221.000
2118.999,2343.000,2294.000,2203.000
2125.087,2407.000,2298.000,2284.000
2131.172,2325.000,2271.000,2241.000
2137.251,2339.000,2271.000,2244.000
2143.327,2356.000,2303.000,2253.000
2149.397,2343.000,2263.000,2261.000
2155.463,2317.000,2235.000,2213.000
2161.524,2314.000,2269.000,2270.000
2167.581,2398.000,2258.000,2244.000
2173.634,2315.000,2288.000,2258.000
2179.682,2310.000,2311.000,2245.000
2185.727,2337.000,2246.000,2310.000
2191.766,2380.000,2303.000,2284.000
2197.802,2331.000,2285.000,2205.000
2203.832,2394.000,2301.000,2292.000
2209.860,2337.000,2277.000,2290.000
2215.881,2353.000,2274.000,2238.000
2221.900,2373.000,2293.000,2241.000
2227.913,2301.000,2305.000,2298.000
2233.922,2329.000,2280.000,2280.000
2239.927,2384.000,2289.000,2343.000
2245.928,2391.000,2282.000,2294.000
2251.922,2400.000,2303.000,2320.000
2257.915,2405.000,2319.000,2228.000
2263.902,2352.000,2349.000,2324.000
2269.886,2371.000,2283.000,2318.000
2275.864,2399.000,2317.000,2334.000
2281.839,2384.000,2327.000,2266.000
2287.809,2359.000,2358.000,2278.000
2293.774,2391.000,2321.000,2333.000
2299.735,2395.000,2335.000,2310.000
2305.692,2439.000,2338.000,2298.000
2311.646,2430.000,2332.000,2339.000
2317.593,2445.000,2322.000,2336.000
2323.539,2424.000,2354.000,2308.000
2329.477,2452.000,2336.000,2347.000
2335.414,2425.000,2277.000,2327.000
2341.344,2451.000,2388.000,2336.000
2347.272,2493.000,2453.000,2428.000
2353.194,2445.000,2339.000,2370.000
2359.114,2453.000,2298.000,2371.000
2365.028,2459.000,2363.000,2357.000
2370.938,2462.000,2343.000,2389.000
2376.843,2438.000,2389.000,2345.000
2382.746,2437.000,2371.000,2364.000
2388.643,2442.000,2361.000,2342.000
2394.537,2483.000,2413.000,2381.000
2400.424,2463.000,2393.000,2370.000
2406.309,2450.000,2380.000,2312.000
2412.190,2503.000,2377.000,2385.000
2418.065,2493.000,2439.000,2339.000
2423.938,2493.000,2370.000,2367.000
2429.805,2467.000,2375.000,2345.000
2435.669,2451.000,2382.000,2369.000
2441.528,2466.000,2396.000,2349.000
2447.384,2457.000,2346.000,2308.000
2453.234,2482.000,2362.000,2372.000
2459.082,2471.000,2417.000,2364.000
2464.924,2495.000,2382.000,2424.000
2470.763,2442.000,2438.000,2354.000
2476.596,2457.000,2381.000,2367.000
2482.427,2448.000,2396.000,2371.000
2488.252,2464.000,2403.000,2461.000
2494.076,2461.000,2433.000,2342.000
2499.892,2426.000,2426.000,2420.000
2505.707,2476.000,2431.000,2368.000
2511.515,2461.000,2407.000,2411.000
2517.320,2515.000,2358.000,2363.000
2523.121,2524.000,2463.000,2410.000
2528.919,2515.000,2400.000,2414.000
2534.710,2582.000,2473.000,2423.000
2540.498,2466.000,2451.000,2421.000
2546.284,2527.000,2406.000,2472.000
2552.063,2532.000,2471.000,2426.000
2557.841,2508.000,2449.000,2476.000
2563.613,2508.000,2488.000,2416.000
2569.381,2524.000,2525.000,2425.000
2575.145,2572.000,2451.000,2443.000
2580.905,2577.000,2504.000,2444.000
2586.661,2587.000,2493.000,2447.000
2592.413,2531.000,2545.000,2465.000
2598.160,2528.000,2499.000,2411.000
2603.904,2580.000,2460.000,2465.000
2609.643,2589.000,2523.000,2484.000
2615.379,2591.000,2498.000,2464.000
2621.110,2562.000,2495.000,2443.000
2626.838,2617.000,2491.000,2525.000
2632.561,2576.000,2475.000,2489.000
2638.280,2689.000,2553.000,2570.000
2643.995,2658.000,2562.000,2479.000
2649.705,2600.000,2545.000,2518.000
2655.413,2593.000,2574.000,2489.000
2661.115,2660.000,2552.000,2531.000
2666.815,2586.000,2511.000,2536.000
2672.510,2664.000,2558.000,2537.000
2678.202,2672.000,2577.000,2555.000
2683.887,2669.000,2550.000,2550.000
2689.572,2615.000,2594.000,2560.000
2695.249,2654.000,2624.000,2508.000
2700.926,2675.000,2573.000,2557.000
2706.595,2633.000,2617.000,2586.000
2712.263,2647.000,2622.000,2530.000
2717.926,2680.000,2583.000,2572.000
2723.585,2670.000,2555.000,2579.000
2729.239,2656.000,2592.000,2533.000
2734.891,2678.000,2555.000,2586.000
2740.537,2637.000,2568.000,2550.000
2746.181,2670.000,2584.000,2618.000
2751.820,2684.000,2578.000,2560.000
2757.456,2671.000,2527.000,2548.000
2763.087,2670.000,2608.000,2563.000
2768.714,2613.000,2582.000,2531.000
2774.337,2654.000,2574.000,2535.000
2779.956,2675.000,2604.000,2579.000
2785.571,2693.000,2579.000,2537.000
2791.183,2615.000,2639.000,2602.000
2796.791,2638.000,2586.000,2595.000
2802.393,2699.000,2594.000,2611.000
2807.994,2666.000,2592.000,2601.000
2813.589,2697.000,2591.000,2578.000
2819.182,2713.000,2576.000,2593.000
2824.770,2711.000,2574.000,2563.000
2830.354,2674.000,2608.000,2583.000
2835.934,2676.000,2601.000,2622.000
2841.510,2714.000,2635.000,2586.000
2847.082,2720.000,2657.000,2614.000
2852.651,2671.000,2621.000,2675.000
2858.216,2732.000,2654.000,2661.000
2863.777,2696.000,2672.000,2683.000
2869.332,2726.000,2648.000,2667.000
2874.886,2765.000,2691.000,2598.000
2880.435,2733.000,2612.000,2637.000
2885.980,2764.000,2717.000,2687.000
2891.521,2754.000,2717.000,2671.000
2897.058,2772.000,2734.000,2699.000
2902.592,2784.000,2678.000,2602.000
2908.122,2846.000,2692.000,2708.000
2913.648,2756.000,2711.000,2664.000
2919.170,2753.000,2744.000,2668.000
2924.689,2753.000,2720.000,2677.000
2930.202,2762.000,2720.000,2697.000
2935.713,2732.000,2709.000,2674.000
2941.220,2747.000,2703.000,2658.000
2946.723,2723.000,2727.000,2656.000
2952.222,2756.000,2743.000,2708.000
2957.718,2695.000,2663.000,2650.000
2963.208,2783.000,2635.000,2646.000
2968.697,2728.000,2684.000,2644.000
2974.180,2692.000,2691.000,2666.000
2979.661,2766.000,2643.000,2643.000
2985.136,2743.000,2656.000,2626.000
2990.610,2742.000,2685.000,2672.000
2996.078,2691.000,2668.000,2647.000
3001.544,2764.000,2700.000,2644.000
3007.004,2727.000,2721.000,2686.000
3012.460,2756.000,2702.000,2670.000
3017.915,2749.000,2648.000,2659.000
3023.364,2733.000,2665.000,2683.000
3028.811,2734.000,2652.000,2702.000
3034.252,2712.000,2741.000,2697.000
3039.692,2741.000,2664.000,2664.000
3045.126,2756.000,2725.000,2670.000
3050.558,2770.000,2727.000,2694.000
3055.984,2808.000,2690.000,2707.000
3061.408,2789.000,2736.000,2706.000
3066.827,2794.000,2711.000,2724.000
3072.244,2796.000,2736.000,2641.000
3077.656,2783.000,2716.000,2664.000
3083.066,2765.000,2676.000,2684.000
3088.470,2821.000,2691.000,2715.000
3093.872,2787.000,2706.000,2681.000
3099.269,2765.000,2696.000,2744.000
3104.663,2808.000,2706.000,2624.000
3110.052,2779.000,2742.000,2704.000
3115.439,2785.000,2709.000,2688.000
3120.822,2750.000,2726.000,2689.000
3126.200,2796.000,2743.000,2713.000
3131.576,2811.000,2763.000,2685.000
3136.947,2770.000,2721.000,2686.000
3142.316,2756.000,2706.000,2685.000
3147.679,2755.000,2671.000,2710.000
3153.041,2732.000,2664.000,2661.000
3158.397,2745.000,2728.000,2691.000
3163.751,2708.000,2708.000,2648.000
3169.099,2751.000,2658.000,2669.000
3174.446,2748.000,2734.000,2640.000
3179.787,2782.000,2705.000,2682.000
3185.127,2765.000,2732.000,2679.000
3190.462,2733.000,2683.000,2624.000
3195.793,2741.000,2634.000,2647.000
3201.121,2815.000,2666.000,2663.000
3206.445,2752.000,2684.000,2680.000
3211.766,2781.000,2740.000,2694.000
3217.082,2783.000,2699.000,2700.000
3222.395,2793.000,2645.000,2682.000
3227.705,2755.000,2787.000,2722.000
3233.010,2810.000,2728.000,2700.000
3238.312,2776.000,2742.000,2682.000
3243.611,2767.000,2715.000,2777.000
3248.906,2824.000,2756.000,2737.000
3252.875,2759.000,2709.000,2728.000