File: Raman/Silica/2025_08_22_Nat_Qtz_50X_532nm_6mW_Andor750_600gv_400wn_3accum_30s_UnPol.csv
-683.222,643.000,652.000,649.000
-674.869,643.000,645.000,649.000
-666.520,645.000,646.000,642.000
-658.182,647.000,651.000,653.000
-649.848,644.000,646.000,643.000
-641.523,649.000,640.000,645.000
-633.206,636.000,644.000,652.000
-624.893,649.000,650.000,647.000
-616.591,648.000,647.000,649.000
-608.291,647.000,650.000,646.000
-600.003,650.000,644.000,643.000
-591.721,642.000,649.000,648.000
-583.444,644.000,648.000,648.000
-575.176,649.000,650.000,654.000
-566.913,648.000,646.000,651.000
-558.659,651.000,649.000,651.000
-550.413,649.000,648.000,643.000
-542.171,655.000,651.000,650.000
-533.938,651.000,650.000,653.000
-525.710,652.000,646.000,648.000
-517.492,651.000,650.000,653.000
-509.280,654.000,643.000,658.000
-501.073,655.000,653.000,656.000
-492.876,651.000,657.000,662.000
-484.685,663.000,662.000,661.000
-476.499,667.000,666.000,652.000
-468.322,684.000,690.000,683.000
-460.151,725.000,718.000,729.000
-451.988,1115.000,1078.000,1091.000
-443.832,853.000,854.000,860.000
-435.680,700.000,705.000,692.000
-427.538,665.000,656.000,663.000
-419.399,657.000,652.000,650.000
-411.271,662.000,658.000,648.000
-403.150,652.000,657.000,652.000
-395.033,649.000,650.000,649.000
-386.925,687.000,676.000,683.000
-378.822,648.000,655.000,657.000
-370.727,660.000,650.000,651.000
-362.640,657.000,661.000,649.000
-354.557,654.000,653.000,655.000
-346.484,663.000,654.000,654.000
-338.415,665.000,653.000,657.000
-330.355,651.000,658.000,659.000
-322.302,655.000,656.000,650.000
-314.253,645.000,659.000,658.000
-306.214,653.000,656.000,656.000
-298.179,659.000,658.000,650.000
-290.152,651.000,653.000,647.000
-282.132,645.000,650.000,660.000
-274.118,659.000,646.000,662.000
-266.112,659.000,663.000,660.000
-258.110,686.000,671.000,669.000
-250.118,744.000,743.000,765.000
-242.132,682.000,686.000,691.000
-234.150,695.000,684.000,692.000
-226.178,697.000,702.000,710.000
-218.209,733.000,750.000,751.000
-210.250,812.000,818.000,831.000
-202.298,971.000,991.000,971.000
-194.350,1151.000,1120.000,1138.000
-186.411,977.000,1007.000,985.000
-178.478,811.000,811.000,827.000
-170.550,749.000,737.000,737.000
-162.630,722.000,707.000,717.000
-154.715,691.000,687.000,693.000
-146.810,695.000,691.000,695.000
-138.910,721.000,722.000,713.000
-131.015,720.000,717.000,708.000
-123.128,779.000,772.000,790.000
-115.247,1277.000,1248.000,1232.000
-107.374,724.000,722.000,720.000
-99.506,688.000,673.000,684.000
-91.645,679.000,667.000,660.000
-83.792,688.000,686.000,674.000
-75.942,668.000,670.000,677.000
-68.101,663.000,666.000,666.000
-60.268,687.000,677.000,684.000
-52.437,670.000,679.000,676.000
-44.617,670.000,674.000,676.000
-36.799,671.000,687.000,681.000
-28.991,688.000,680.000,685.000
-21.190,688.000,687.000,681.000
-13.393,706.000,701.000,705.000
-5.605,990.000,987.000,968.000
2.180,3655.000,3668.000,3747.000
9.955,1749.000,1733.000,1727.000
17.725,3520.000,3543.000,3525.000
25.490,750.000,753.000,746.000
33.247,694.000,693.000,681.000
40.999,684.000,675.000,674.000
48.743,672.000,674.000,688.000
56.480,702.000,692.000,687.000
64.213,671.000,685.000,667.000
71.937,689.000,677.000,677.000
79.658,686.000,701.000,696.000
87.369,677.000,674.000,668.000
95.075,684.000,676.000,677.000
102.776,695.000,700.000,697.000
110.470,679.000,683.000,675.000
118.155,697.000,697.000,702.000
125.838,765.000,753.000,769.000
133.512,1563.000,1584.000,1581.000
141.181,965.000,958.000,964.000
148.842,790.000,782.000,795.000
156.497,768.000,772.000,774.000
164.147,743.000,740.000,749.000
171.790,743.000,753.000,759.000
179.428,791.000,787.000,807.000
187.058,844.000,857.000,845.000
194.682,988.000,983.000,1008.000
202.301,1321.000,1295.000,1326.000
209.913,1789.000,1764.000,1817.000
217.519,1718.000,1727.000,1759.000
225.118,1312.000,1309.000,1273.000
232.710,1004.000,1023.000,1005.000
240.298,885.000,891.000,861.000
247.879,823.000,816.000,796.000
255.454,768.000,773.000,774.000
263.022,784.000,787.000,785.000
270.584,1061.000,1051.000,1040.000
278.141,739.000,737.000,733.000
285.690,706.000,698.000,696.000
293.236,685.000,692.000,687.000
300.772,686.000,685.000,680.000
308.303,692.000,681.000,683.000
315.830,674.000,679.000,680.000
323.348,676.000,676.000,678.000
330.862,681.000,669.000,676.000
338.369,672.000,667.000,676.000
345.868,681.000,663.000,669.000
353.365,673.000,676.000,673.000
360.853,810.000,817.000,810.000
368.336,693.000,699.000,702.000
375.813,671.000,681.000,690.000
383.282,686.000,683.000,677.000
390.748,681.000,684.000,682.000
398.206,701.000,709.000,704.000
405.659,822.000,830.000,826.000
413.105,698.000,707.000,692.000
420.544,704.000,684.000,699.000
427.980,702.000,697.000,702.000
435.408,719.000,714.000,709.000
442.831,745.000,739.000,751.000
450.246,874.000,858.000,876.000
457.656,1175.000,1167.000,1158.000
465.061,3240.000,3206.000,3177.000
472.459,4045.000,4036.000,3985.000
479.851,1452.000,1448.000,1481.000
487.238,1011.000,1004.000,1006.000
494.618,873.000,853.000,849.000
501.994,795.000,798.000,794.000
509.362,751.000,771.000,764.000
516.724,744.000,750.000,739.000
524.082,736.000,748.000,742.000
531.432,738.000,744.000,753.000
538.778,724.000,707.000,708.000
546.115,694.000,699.000,710.000
553.448,698.000,696.000,710.000
560.777,691.000,691.000,692.000
568.097,688.000,698.000,707.000
575.414,689.000,684.000,687.000
582.722,684.000,682.000,693.000
590.025,682.000,937.000,689.000
597.324,689.000,707.000,691.000
604.615,688.000,691.000,691.000
611.903,691.000,689.000,682.000
619.182,677.000,681.000,681.000
626.456,689.000,697.000,679.000
633.726,678.000,692.000,682.000
640.988,694.000,669.000,679.000
648.247,684.000,679.000,679.000
655.497,682.000,679.000,672.000
662.741,718.000,687.000,679.000
669.983,678.000,671.000,676.000
677.215,681.000,677.000,684.000
684.444,684.000,684.000,682.000
691.667,690.000,699.000,687.000
698.883,746.000,735.000,733.000
706.095,700.000,705.000,698.000
713.298,685.000,679.000,680.000
720.497,689.000,683.000,677.000
727.692,675.000,674.000,686.000
734.879,690.000,682.000,694.000
742.063,675.000,670.000,679.000
749.238,675.000,674.000,682.000
756.408,677.000,680.000,674.000
763.575,684.000,677.000,681.000
770.734,679.000,689.000,678.000
777.889,688.000,685.000,692.000
785.036,699.000,691.000,701.000
792.178,729.000,734.000,736.000
799.315,814.000,782.000,788.000
806.446,787.000,786.000,786.000
813.573,737.000,743.000,751.000
820.691,691.000,697.000,697.000
827.804,701.000,693.000,689.000
834.914,679.000,691.000,691.000
842.016,693.000,696.000,700.000
849.115,695.000,679.000,699.000
856.206,698.000,691.000,684.000
863.291,685.000,695.000,685.000
870.373,672.000,693.000,693.000
877.447,681.000,691.000,673.000
884.517,689.000,685.000,688.000
891.580,693.000,693.000,692.000
898.637,689.000,678.000,689.000
905.692,685.000,682.000,684.000
912.738,686.000,691.000,685.000
919.781,699.000,679.000,688.000
926.816,676.000,683.000,681.000
933.845,690.000,686.000,688.000
940.872,686.000,685.000,682.000
947.890,686.000,688.000,680.000
954.906,688.000,682.000,684.000
961.913,683.000,682.000,680.000
968.915,680.000,693.000,679.000
975.913,684.000,682.000,682.000
982.905,676.000,678.000,683.000
989.892,673.000,693.000,677.000
996.872,686.000,681.000,675.000
1003.847,682.000,675.000,693.000
1010.817,676.000,680.000,683.000
1017.781,682.000,689.000,684.000
1024.742,682.000,677.000,681.000
1031.694,676.000,693.000,688.000
1038.642,684.000,669.000,691.000
1045.586,693.000,680.000,676.000
1052.522,691.000,685.000,688.000
1059.453,713.000,707.000,703.000
1066.381,749.000,762.000,755.000
1073.301,724.000,707.000,716.000
1080.218,759.000,745.000,744.000
1087.128,723.000,730.000,725.000
1094.031,695.000,693.000,685.000
1100.932,689.000,695.000,694.000
1107.825,688.000,677.000,677.000
1114.716,691.000,701.000,689.000
1121.598,688.000,682.000,677.000
1128.475,690.000,691.000,703.000
1135.349,699.000,688.000,682.000
1142.215,698.000,688.000,692.000
1149.079,706.000,697.000,699.000
1155.935,748.000,749.000,739.000
1162.785,758.000,761.000,758.000
1169.632,697.000,695.000,713.000
1176.473,689.000,695.000,679.000
1183.309,686.000,694.000,693.000
1190.138,693.000,683.000,689.000
1196.962,691.000,694.000,691.000
1203.783,687.000,693.000,694.000
1210.597,700.000,698.000,688.000
1217.407,704.000,702.000,694.000
1224.209,708.000,706.000,705.000
1231.008,709.000,695.000,706.000
1237.802,716.000,703.000,721.000
1242.893,708.000,715.000,699.000