File: Raman/Silica/2025_09_12_12pct_Hydrated_SiO2_Glass_on_DAC_Culet_50X_532nm_74mW_Andor750_600gv_3400wn_6accum_30s_DePol_Loc5_DAC2.csv
2654.492,811.000,800.000,827.000,807.000,807.000,802.000
2664.444,820.000,823.000,823.000,820.000,817.000,809.000
2674.383,825.000,829.000,820.000,810.000,822.000,804.000
2684.311,811.000,819.000,819.000,825.000,807.000,824.000
2694.227,835.000,812.000,819.000,825.000,809.000,813.000
2704.130,811.000,826.000,822.000,807.000,810.000,815.000
2714.020,838.000,839.000,827.000,813.000,813.000,802.000
2723.899,828.000,813.000,814.000,807.000,812.000,790.000
2733.765,845.000,825.000,808.000,822.000,819.000,809.000
2743.620,842.000,810.000,801.000,823.000,797.000,810.000
2753.462,835.000,835.000,826.000,811.000,821.000,812.000
2763.292,808.000,831.000,830.000,818.000,806.000,817.000
2773.111,821.000,826.000,823.000,817.000,810.000,804.000
2782.917,823.000,828.000,831.000,814.000,816.000,804.000
2792.711,816.000,825.000,823.000,809.000,810.000,787.000
2802.494,831.000,823.000,842.000,807.000,803.000,803.000
2812.264,834.000,818.000,809.000,819.000,810.000,817.000
2822.022,835.000,807.000,828.000,803.000,819.000,812.000
2831.768,808.000,828.000,814.000,831.000,812.000,800.000
2841.504,838.000,828.000,802.000,807.000,813.000,810.000
2851.227,835.000,830.000,819.000,833.000,819.000,815.000
2860.937,840.000,816.000,834.000,833.000,817.000,803.000
2870.636,831.000,830.000,825.000,828.000,824.000,813.000
2880.323,839.000,825.000,848.000,824.000,814.000,816.000
2889.998,840.000,843.000,837.000,830.000,832.000,816.000
2899.662,851.000,833.000,848.000,836.000,831.000,832.000
2909.314,889.000,886.000,866.000,880.000,839.000,852.000
2918.955,914.000,910.000,919.000,902.000,892.000,896.000
2928.584,851.000,896.000,872.000,861.000,864.000,884.000
2938.201,889.000,862.000,856.000,851.000,843.000,832.000
2947.805,859.000,849.000,859.000,851.000,841.000,824.000
2957.399,849.000,850.000,851.000,850.000,835.000,843.000
2966.981,870.000,863.000,849.000,847.000,841.000,851.000
2976.552,866.000,859.000,864.000,870.000,850.000,854.000
2986.112,868.000,861.000,868.000,844.000,859.000,852.000
2995.659,852.000,836.000,848.000,839.000,848.000,847.000
3005.195,851.000,847.000,852.000,846.000,848.000,836.000
3014.719,877.000,850.000,856.000,855.000,834.000,842.000
3024.231,876.000,862.000,865.000,857.000,847.000,855.000
3033.733,858.000,860.000,895.000,865.000,846.000,867.000
3043.222,853.000,853.000,877.000,853.000,838.000,870.000
3052.700,851.000,855.000,854.000,852.000,838.000,859.000
3062.168,882.000,852.000,850.000,865.000,859.000,845.000
3071.625,870.000,882.000,862.000,869.000,851.000,892.000
3081.068,873.000,871.000,868.000,880.000,868.000,853.000
3090.502,892.000,862.000,883.000,879.000,885.000,852.000
3099.923,863.000,865.000,867.000,891.000,854.000,846.000
3109.333,888.000,883.000,860.000,875.000,867.000,854.000
3118.732,903.000,893.000,896.000,888.000,898.000,895.000
3128.121,917.000,921.000,894.000,908.000,874.000,912.000
3137.497,920.000,905.000,914.000,898.000,891.000,878.000
3146.863,928.000,911.000,912.000,911.000,907.000,873.000
3156.217,915.000,926.000,895.000,899.000,906.000,915.000
3165.560,933.000,910.000,925.000,932.000,906.000,907.000
3174.892,932.000,937.000,919.000,924.000,918.000,916.000
3184.212,928.000,930.000,931.000,930.000,922.000,918.000
3193.522,945.000,941.000,947.000,926.000,936.000,923.000
3202.821,958.000,973.000,942.000,954.000,920.000,941.000
3212.109,949.000,971.000,963.000,951.000,941.000,951.000
3221.385,980.000,945.000,962.000,925.000,953.000,957.000
3230.650,977.000,983.000,956.000,946.000,927.000,954.000
3239.904,955.000,979.000,971.000,951.000,983.000,949.000
3249.148,966.000,972.000,972.000,970.000,952.000,953.000
3258.381,973.000,962.000,973.000,970.000,940.000,973.000
3267.603,1000.000,988.000,982.000,995.000,970.000,971.000
3276.813,981.000,992.000,981.000,983.000,988.000,973.000
3286.013,985.000,994.000,1007.000,979.000,989.000,964.000
3295.200,996.000,994.000,985.000,981.000,987.000,982.000
3304.379,991.000,997.000,993.000,1010.000,994.000,990.000
3313.545,1034.000,1012.000,984.000,999.000,987.000,988.000
3322.701,1027.000,1021.000,1010.000,1017.000,991.000,1006.000
3331.848,1029.000,1036.000,1015.000,1022.000,1021.000,1021.000
3340.982,1034.000,1034.000,1026.000,1020.000,1029.000,1014.000
3350.105,1055.000,1044.000,1037.000,1029.000,1027.000,1014.000
3359.218,1038.000,1051.000,1045.000,1030.000,1051.000,1032.000
3368.321,1062.000,1071.000,1060.000,1028.000,1034.000,1044.000
3377.412,1082.000,1059.000,1061.000,1066.000,1065.000,1053.000
3386.492,1052.000,1089.000,1047.000,1090.000,1074.000,1065.000
3395.562,1078.000,1086.000,1099.000,1070.000,1063.000,1052.000
3404.623,1061.000,1086.000,1068.000,1077.000,1048.000,1090.000
3413.672,1081.000,1097.000,1123.000,1085.000,1077.000,1080.000
3422.709,1093.000,1074.000,1079.000,1096.000,1083.000,1086.000
3431.737,1103.000,1105.000,1104.000,1090.000,1087.000,1104.000
3440.753,1107.000,1114.000,1108.000,1100.000,1095.000,1102.000
3449.759,1102.000,1095.000,1102.000,1125.000,1120.000,1084.000
3458.755,1113.000,1109.000,1112.000,1098.000,1092.000,1101.000
3467.740,1124.000,1115.000,1108.000,1098.000,1109.000,1097.000
3476.716,1123.000,1133.000,1113.000,1089.000,1103.000,1107.000
3485.680,1104.000,1118.000,1100.000,1083.000,1095.000,1101.000
3494.634,1132.000,1114.000,1100.000,1072.000,1081.000,1099.000
3503.577,1113.000,1089.000,1090.000,1099.000,1088.000,1091.000
3512.509,1114.000,1071.000,1067.000,1093.000,1085.000,1071.000
3521.431,1109.000,1112.000,1102.000,1088.000,1093.000,1057.000
3530.343,1110.000,1087.000,1079.000,1075.000,1075.000,1077.000
3539.246,1057.000,1095.000,1085.000,1079.000,1067.000,1048.000
3548.137,1079.000,1089.000,1079.000,1082.000,1100.000,1091.000
3557.017,1085.000,1063.000,1061.000,1058.000,1084.000,1065.000
3565.888,1076.000,1062.000,1053.000,1083.000,1049.000,1076.000
3574.749,1077.000,1075.000,1062.000,1052.000,1065.000,1055.000
3583.597,1082.000,1081.000,1083.000,1085.000,1072.000,1046.000
3592.437,1098.000,1080.000,1077.000,1059.000,1096.000,1072.000
3601.268,1084.000,1095.000,1083.000,1077.000,1082.000,1083.000
3610.086,1080.000,1064.000,1051.000,1051.000,1042.000,1032.000
3618.896,1055.000,1024.000,1039.000,1041.000,1050.000,1031.000
3627.694,1040.000,1022.000,1033.000,1049.000,1031.000,1018.000
3636.482,1023.000,1046.000,1012.000,1032.000,1018.000,1021.000
3645.260,1030.000,1019.000,1015.000,1038.000,1017.000,1023.000
3654.029,1033.000,1020.000,1027.000,1006.000,1021.000,994.000
3662.786,1012.000,1017.000,981.000,982.000,1006.000,982.000
3671.535,976.000,957.000,961.000,952.000,966.000,937.000
3680.272,920.000,925.000,948.000,910.000,918.000,918.000
3689.000,883.000,881.000,882.000,877.000,863.000,879.000
3697.717,846.000,840.000,850.000,832.000,825.000,824.000
3706.425,814.000,820.000,806.000,825.000,814.000,801.000
3715.122,811.000,796.000,799.000,791.000,785.000,775.000
3723.809,772.000,786.000,792.000,800.000,774.000,763.000
3732.487,789.000,789.000,777.000,785.000,787.000,787.000
3741.155,787.000,778.000,771.000,767.000,764.000,754.000
3749.813,774.000,767.000,778.000,769.000,774.000,755.000
3758.460,774.000,772.000,771.000,775.000,754.000,759.000
3767.097,764.000,772.000,763.000,762.000,761.000,773.000
3775.724,778.000,774.000,771.000,753.000,760.000,746.000
3784.343,762.000,767.000,763.000,755.000,760.000,752.000
3792.950,769.000,761.000,757.000,746.000,752.000,749.000
3801.550,761.000,775.000,754.000,759.000,756.000,764.000
3810.138,764.000,759.000,764.000,757.000,757.000,750.000
3818.715,774.000,749.000,758.000,742.000,758.000,750.000
3827.284,753.000,746.000,767.000,753.000,767.000,755.000
3835.842,767.000,759.000,767.000,758.000,758.000,747.000
3844.392,763.000,762.000,760.000,759.000,763.000,753.000
3852.931,748.000,767.000,769.000,761.000,749.000,763.000
3861.461,760.000,762.000,750.000,763.000,767.000,758.000
3869.981,760.000,755.000,763.000,759.000,757.000,763.000
3878.490,770.000,767.000,760.000,745.000,756.000,747.000
3886.991,778.000,748.000,762.000,741.000,757.000,762.000
3895.481,766.000,746.000,771.000,745.000,755.000,754.000
3903.962,755.000,758.000,766.000,745.000,752.000,730.000
3912.433,756.000,761.000,759.000,765.000,756.000,750.000
3920.897,764.000,751.000,764.000,760.000,747.000,748.000
3929.348,765.000,742.000,756.000,756.000,754.000,753.000
3937.791,761.000,771.000,760.000,764.000,757.000,745.000
3946.223,760.000,757.000,751.000,748.000,763.000,750.000
3954.647,754.000,752.000,754.000,761.000,753.000,761.000
3963.060,770.000,759.000,747.000,755.000,759.000,752.000
3971.464,759.000,751.000,761.000,762.000,750.000,753.000
3979.859,761.000,779.000,759.000,767.000,763.000,757.000
3988.245,777.000,768.000,764.000,781.000,755.000,778.000
3989.441,788.000,781.000,782.000,771.000,772.000,767.000