File: Raman/Silica/2025_08_22_Nat_Qtz_50X_532nm_74mW_Andor750_600gv_4500wn_3accum_5s_UnPol.csv
3862.099,1170.000,1152.000,1183.000
3866.946,1227.000,1214.000,1202.000
3871.790,1234.000,1219.000,1201.000
3876.632,1193.000,1216.000,1197.000
3881.470,1212.000,1234.000,1220.000
3886.305,1226.000,1211.000,1235.000
3891.137,1221.000,1219.000,1200.000
3895.966,1216.000,1215.000,1219.000
3900.792,1200.000,1212.000,1208.000
3905.615,1186.000,1206.000,1218.000
3910.434,1205.000,1187.000,1155.000
3915.251,1176.000,1194.000,1186.000
3920.064,1201.000,1169.000,1144.000
3924.875,1190.000,1188.000,1151.000
3929.681,1176.000,1180.000,1154.000
3934.485,1143.000,1138.000,1165.000
3939.284,1156.000,1159.000,1143.000
3944.082,1129.000,1139.000,1147.000
3948.877,1143.000,1147.000,1132.000
3953.669,1156.000,1143.000,1168.000
3958.457,1150.000,1145.000,1142.000
3963.243,1160.000,1164.000,1170.000
3968.025,1137.000,1151.000,1161.000
3972.804,1169.000,1159.000,1158.000
3977.580,1162.000,1150.000,1158.000
3982.353,1156.000,1168.000,1169.000
3987.123,1175.000,1154.000,1192.000
3991.890,1181.000,1174.000,1166.000
3996.654,1200.000,1219.000,1185.000
4001.414,1176.000,1149.000,1162.000
4006.172,1169.000,1184.000,1183.000
4010.926,1187.000,1189.000,1158.000
4015.679,1182.000,1183.000,1172.000
4020.427,1167.000,1175.000,1179.000
4025.172,1153.000,1163.000,1170.000
4029.915,1200.000,1169.000,1182.000
4034.654,1133.000,1138.000,1174.000
4039.391,1137.000,1135.000,1129.000
4044.125,1152.000,1116.000,1132.000
4048.855,1111.000,1117.000,1138.000
4053.582,1114.000,1131.000,1106.000
4058.306,1089.000,1101.000,1098.000
4063.027,1117.000,1102.000,1098.000
4067.745,1104.000,1101.000,1128.000
4072.460,1095.000,1096.000,1106.000
4077.171,1091.000,1106.000,1100.000
4081.880,1100.000,1106.000,1091.000
4086.587,1130.000,1101.000,1103.000
4091.289,1100.000,1113.000,1125.000
4095.990,1119.000,1104.000,1114.000
4100.687,1128.000,1109.000,1110.000
4105.381,1091.000,1098.000,1087.000
4110.072,1087.000,1085.000,1080.000
4114.760,1111.000,1083.000,1081.000
4119.445,1105.000,1108.000,1107.000
4124.128,1094.000,1114.000,1111.000
4128.806,1082.000,1116.000,1113.000
4133.483,1107.000,1091.000,1111.000
4138.156,1119.000,1102.000,1101.000
4142.826,1119.000,1111.000,1126.000
4147.493,1081.000,1102.000,1099.000
4152.157,1090.000,1095.000,1086.000
4156.818,1067.000,1088.000,1084.000
4161.477,1112.000,1092.000,1096.000
4166.133,1075.000,1082.000,1058.000
4170.784,1079.000,1039.000,1053.000
4175.434,1087.000,1057.000,1088.000
4180.080,1057.000,1050.000,1056.000
4184.724,1064.000,1053.000,1047.000
4189.364,1052.000,1053.000,1042.000
4194.002,1035.000,1059.000,1052.000
4198.637,1032.000,1047.000,1046.000
4203.269,1038.000,1029.000,1041.000
4207.898,1009.000,1037.000,1030.000
4212.523,1009.000,1031.000,1019.000
4217.147,1049.000,1021.000,1046.000
4221.765,1036.000,1024.000,1013.000
4226.382,1029.000,1026.000,1011.000
4230.997,1015.000,1002.000,1032.000
4235.608,1018.000,1029.000,1040.000
4240.216,1000.000,1019.000,1033.000
4244.821,1028.000,1055.000,984.000
4249.424,1030.000,1022.000,1012.000
4254.024,1030.000,1027.000,1022.000
4258.620,1043.000,1026.000,1025.000
4263.214,1039.000,1043.000,1026.000
4267.805,1056.000,1047.000,1060.000
4272.393,1028.000,1048.000,1060.000
4276.977,1060.000,1050.000,1079.000
4281.559,1048.000,1071.000,1070.000
4286.139,1050.000,1097.000,1075.000
4290.716,1095.000,1101.000,1130.000
4295.290,1115.000,1081.000,1118.000
4299.860,1135.000,1135.000,1159.000
4304.427,1184.000,1198.000,1184.000
4308.992,1229.000,1263.000,1246.000
4313.554,1287.000,1317.000,1305.000
4318.113,1360.000,1381.000,1347.000
4322.669,1472.000,1446.000,1447.000
4327.223,1571.000,1607.000,1577.000
4331.773,1751.000,1788.000,1754.000
4336.321,1974.000,2010.000,1991.000
4340.866,2395.000,2429.000,2384.000
4345.407,3020.000,3051.000,2981.000
4349.947,3994.000,3997.000,3969.000
4354.482,5542.000,5608.000,5513.000
4359.015,8111.000,8267.000,8180.000
4363.546,12062.000,11853.000,12030.000
4368.074,15281.000,14996.000,15317.000
4372.599,15523.000,15614.000,15587.000
4377.120,13556.000,13559.000,13461.000
4381.639,12580.000,12595.000,12546.000
4386.156,13653.000,13706.000,13646.000
4390.670,17076.000,17064.000,17181.000
4395.180,22082.000,21974.000,21936.000
4399.688,24546.000,24403.000,24331.000
4404.193,21979.000,22112.000,22064.000
4408.695,17366.000,17255.000,17266.000
4413.195,12973.000,12925.000,12988.000
4417.691,9886.000,9836.000,9929.000
4422.186,7792.000,7833.000,7772.000
4426.676,6327.000,6273.000,6223.000
4431.165,5281.000,5267.000,5305.000
4435.650,4464.000,4542.000,4481.000
4440.132,3962.000,3888.000,3979.000
4444.612,3424.000,3443.000,3393.000
4449.089,3097.000,3040.000,3084.000
4453.563,2905.000,2830.000,2865.000
4458.035,2761.000,2783.000,2673.000
4462.504,2589.000,2631.000,2553.000
4466.970,2473.000,2472.000,2449.000
4471.432,2444.000,2420.000,2470.000
4475.893,2335.000,2347.000,2443.000
4480.350,2257.000,2284.000,2302.000
4484.804,2230.000,2264.000,2241.000
4489.257,2153.000,2185.000,2143.000
4493.705,2152.000,2103.000,2139.000
4498.151,2088.000,2091.000,2048.000
4502.595,2107.000,2052.000,2079.000
4507.036,2115.000,2123.000,2123.000
4511.474,2096.000,2099.000,2099.000
4515.909,1998.000,2011.000,2001.000
4520.341,1972.000,1935.000,1957.000
4524.772,1939.000,1905.000,1917.000
4529.199,1891.000,1895.000,1894.000
4533.623,1917.000,1904.000,1902.000
4538.045,1980.000,1953.000,1916.000
4542.464,2003.000,2055.000,2066.000
4546.879,2129.000,2118.000,2121.000
4551.294,2121.000,2083.000,2076.000
4555.704,2007.000,1998.000,1977.000
4560.112,1876.000,1867.000,1859.000
4564.517,1727.000,1785.000,1765.000
4568.920,1690.000,1645.000,1707.000
4573.320,1634.000,1646.000,1652.000
4577.717,1591.000,1614.000,1611.000
4582.111,1630.000,1625.000,1636.000
4586.502,1639.000,1649.000,1649.000
4590.891,1653.000,1693.000,1649.000
4595.278,1697.000,1691.000,1684.000
4599.661,1747.000,1717.000,1701.000
4604.042,1748.000,1765.000,1770.000
4608.420,1771.000,1830.000,1806.000
4612.796,1827.000,1847.000,1844.000
4617.169,1882.000,1908.000,1869.000
4621.536,1853.000,1843.000,1853.000
4625.904,1818.000,1843.000,1820.000
4630.269,1833.000,1800.000,1826.000
4634.631,1846.000,1799.000,1819.000
4638.991,1785.000,1772.000,1779.000
4643.347,1794.000,1769.000,1791.000
4647.701,1800.000,1798.000,1767.000
4652.051,1777.000,1778.000,1767.000
4656.401,1783.000,1781.000,1787.000
4660.746,1820.000,1778.000,1725.000
4665.090,1790.000,1758.000,1794.000
4669.430,1759.000,1785.000,1779.000
4673.767,1716.000,1750.000,1770.000
4678.103,1720.000,1691.000,1730.000
4682.436,1686.000,1701.000,1706.000
4686.765,1634.000,1635.000,1641.000
4691.092,1651.000,1674.000,1641.000
4695.417,1644.000,1627.000,1641.000
4699.738,1583.000,1596.000,1588.000
4704.059,1555.000,1541.000,1516.000
4708.375,1525.000,1486.000,1511.000
4712.688,1465.000,1475.000,1495.000
4717.001,1491.000,1461.000,1461.000
4721.309,1464.000,1496.000,1452.000
4725.615,1459.000,1488.000,1443.000
4729.918,1444.000,1497.000,1468.000
4734.220,1483.000,1481.000,1461.000
4738.518,1470.000,1485.000,1479.000
4742.813,1503.000,1504.000,1518.000
4747.106,1534.000,1518.000,1558.000
4751.397,1563.000,1618.000,1570.000
4755.684,1615.000,1632.000,1580.000
4759.967,1662.000,1612.000,1645.000
4764.250,1686.000,1679.000,1684.000
4768.529,1706.000,1743.000,1724.000
4772.807,1776.000,1738.000,1763.000
4777.081,1789.000,1768.000,1793.000
4781.354,1802.000,1814.000,1780.000
4785.623,1876.000,1874.000,1829.000
4789.890,1833.000,1826.000,1839.000
4794.154,1840.000,1798.000,1838.000
4798.416,1816.000,1851.000,1857.000
4802.675,1828.000,1821.000,1829.000
4806.931,1841.000,1847.000,1827.000
4811.185,1830.000,1829.000,1811.000
4815.437,1807.000,1825.000,1827.000
4819.685,1801.000,1802.000,1802.000
4823.931,1780.000,1780.000,1771.000
4828.175,1724.000,1738.000,1746.000
4832.416,1698.000,1710.000,1706.000
4836.653,1700.000,1666.000,1647.000
4840.890,1677.000,1664.000,1638.000
4845.123,1631.000,1649.000,1627.000
4849.353,1629.000,1611.000,1602.000
4853.581,1593.000,1597.000,1587.000
4857.807,1538.000,1585.000,1564.000
4862.030,1553.000,1540.000,1575.000
4866.251,1542.000,1510.000,1514.000
4870.469,1527.000,1523.000,1516.000
4874.684,1524.000,1501.000,1493.000
4878.895,1468.000,1492.000,1517.000
4883.105,1506.000,1458.000,1489.000
4887.313,1488.000,1473.000,1474.000
4891.518,1487.000,1416.000,1471.000
4895.720,1428.000,1427.000,1460.000
4899.920,1418.000,1418.000,1424.000
4904.118,1417.000,1438.000,1418.000
4908.313,1389.000,1407.000,1382.000
4912.506,1391.000,1378.000,1360.000
4916.696,1385.000,1397.000,1387.000
4920.883,1365.000,1379.000,1395.000
4925.067,1342.000,1335.000,1338.000
4929.250,1326.000,1295.000,1314.000
4933.429,1304.000,1323.000,1311.000
4937.608,1289.000,1296.000,1323.000
4941.782,1264.000,1280.000,1259.000
4945.955,1288.000,1245.000,1261.000
4950.123,1247.000,1243.000,1250.000
4954.291,1212.000,1226.000,1188.000
4958.455,1216.000,1196.000,1241.000
4962.618,1218.000,1192.000,1216.000
4966.778,1177.000,1190.000,1190.000
4970.935,1217.000,1170.000,1176.000
4975.090,1143.000,1200.000,1172.000
4979.241,1169.000,1165.000,1150.000
4983.391,1166.000,1162.000,1187.000
4987.539,1153.000,1155.000,1143.000
4991.684,1146.000,1138.000,1147.000
4995.826,1143.000,1152.000,1142.000
4999.965,1117.000,1156.000,1136.000
5004.103,1119.000,1134.000,1134.000
5007.203,1141.000,1151.000,1150.000