File: Raman/Silica/2025_09_09_8pct_Hydrated_SiO2_Glass_50X_532nm_74mW_Andor750_600gv_1030wn_6accum_30s_DePol_Loc1.csv
23.130,5053.000,5063.000,5100.000,5123.000,5109.000,4987.000
36.684,5043.000,5104.000,5161.000,5113.000,5125.000,5142.000
50.221,5582.000,5638.000,5697.000,5716.000,5648.000,5694.000
63.736,5637.000,5548.000,5608.000,5642.000,5616.000,5664.000
77.233,5453.000,5368.000,5482.000,5420.000,5476.000,5448.000
90.708,4980.000,5024.000,5106.000,5023.000,5092.000,5043.000
104.167,4589.000,4591.000,4657.000,4640.000,4646.000,4589.000
117.603,4249.000,4277.000,4268.000,4264.000,4310.000,4254.000
131.024,3924.000,3990.000,3929.000,4022.000,3967.000,3928.000
144.422,3601.000,3575.000,3559.000,3650.000,3578.000,3605.000
157.804,3300.000,3287.000,3281.000,3331.000,3259.000,3296.000
171.164,2968.000,3014.000,2975.000,2982.000,2992.000,3032.000
184.504,2775.000,2794.000,2810.000,2769.000,2791.000,2790.000
197.829,2657.000,2685.000,2660.000,2641.000,2632.000,2689.000
211.132,2903.000,2598.000,2510.000,2597.000,2573.000,2562.000
224.417,2463.000,2466.000,2462.000,2492.000,2462.000,2484.000
237.681,2364.000,2365.000,2394.000,2396.000,2347.000,2358.000
250.929,2271.000,2255.000,2240.000,2283.000,2303.000,2271.000
264.156,2174.000,2212.000,2233.000,2208.000,2192.000,2231.000
277.367,2153.000,2156.000,2155.000,2185.000,2137.000,2139.000
290.556,2135.000,2066.000,2072.000,2063.000,2098.000,2087.000
303.728,2027.000,2083.000,2079.000,2024.000,2025.000,2002.000
316.880,1984.000,1990.000,1971.000,1986.000,1927.000,1985.000
330.014,1893.000,1921.000,1903.000,1878.000,1935.000,1903.000
343.130,1889.000,1839.000,1848.000,1878.000,1861.000,1851.000
356.226,1821.000,1858.000,1816.000,1830.000,1843.000,1874.000
369.305,1789.000,1802.000,1805.000,1803.000,1825.000,1802.000
382.363,1759.000,1750.000,1772.000,1740.000,1760.000,1741.000
395.405,1723.000,1735.000,1698.000,1718.000,1689.000,1693.000
408.428,1679.000,1631.000,1671.000,1675.000,1654.000,1643.000
421.432,1590.000,1604.000,1657.000,1674.000,1621.000,1613.000
434.417,1618.000,1566.000,1604.000,1614.000,1597.000,1587.000
447.386,1521.000,1550.000,1575.000,1539.000,1579.000,1567.000
460.335,1550.000,1521.000,1524.000,1519.000,1515.000,1509.000
473.265,1495.000,1471.000,1473.000,1459.000,1456.000,1475.000
486.179,1390.000,1407.000,1381.000,1398.000,1392.000,1381.000
499.072,1279.000,1285.000,1303.000,1293.000,1279.000,1283.000
511.950,1199.000,1216.000,1218.000,1233.000,1183.000,1175.000
524.807,1158.000,1147.000,1143.000,1127.000,1125.000,1147.000
537.649,1113.000,1101.000,1119.000,1105.000,1130.000,1100.000
550.469,1074.000,1089.000,1061.000,1095.000,1097.000,1058.000
563.275,1051.000,1059.000,1070.000,1059.000,1065.000,1039.000
576.060,1057.000,1065.000,1041.000,1032.000,1040.000,1059.000
588.829,1030.000,1027.000,1014.000,1033.000,1022.000,1039.000
601.579,1041.000,1038.000,1019.000,1019.000,1006.000,1007.000
614.310,1011.000,1016.000,1023.000,1023.000,987.000,1006.000
627.026,990.000,1007.000,1019.000,999.000,1004.000,1002.000
639.723,993.000,1005.000,1010.000,1001.000,1004.000,997.000
652.403,996.000,1003.000,988.000,997.000,994.000,1003.000
665.064,996.000,1002.000,996.000,999.000,978.000,977.000
677.709,995.000,989.000,1010.000,995.000,1002.000,988.000
690.334,988.000,999.000,976.000,1013.000,996.000,998.000
702.944,992.000,1011.000,997.000,1016.000,995.000,982.000
715.535,1018.000,1044.000,1024.000,1003.000,1014.000,1032.000
728.106,1028.000,1037.000,1003.000,1025.000,1033.000,1027.000
740.664,1049.000,1049.000,1067.000,1049.000,1039.000,1048.000
753.202,1084.000,1100.000,1073.000,1095.000,1095.000,1080.000
765.725,1169.000,1169.000,1159.000,1171.000,1150.000,1188.000
778.228,1431.000,1428.000,1438.000,1412.000,1396.000,1405.000
790.716,1475.000,1501.000,1517.000,1479.000,1505.000,1471.000
803.184,1466.000,1441.000,1434.000,1442.000,1471.000,1423.000
815.637,1374.000,1362.000,1326.000,1384.000,1367.000,1387.000
828.071,1271.000,1264.000,1260.000,1259.000,1267.000,1232.000
840.489,1102.000,1134.000,1139.000,1104.000,1119.000,1126.000
852.890,1045.000,2254.000,1037.000,1056.000,1040.000,1066.000
865.272,1019.000,1019.000,1012.000,1018.000,1033.000,1021.000
877.640,1054.000,1030.000,1018.000,1027.000,1024.000,1025.000
889.988,1045.000,1018.000,1006.000,1020.000,1028.000,1009.000
902.321,1056.000,1032.000,1062.000,1035.000,1055.000,1040.000
914.635,1083.000,1078.000,1090.000,1086.000,1066.000,1056.000
926.934,1099.000,1101.000,1108.000,1126.000,1111.000,1095.000
939.215,1175.000,1174.000,1176.000,1179.000,1163.000,1147.000
951.481,1197.000,1233.000,1235.000,1183.000,1224.000,1212.000
963.727,1265.000,1256.000,1245.000,1243.000,1286.000,1251.000
975.959,1256.000,1256.000,1246.000,1257.000,1279.000,1262.000
988.172,1211.000,1197.000,1200.000,1217.000,1204.000,1197.000
1000.369,1167.000,1172.000,1147.000,1160.000,1163.000,1174.000
1012.551,1164.000,1139.000,1147.000,1167.000,1146.000,1138.000
1024.714,1192.000,1185.000,1197.000,1184.000,1162.000,1184.000
1036.863,1231.000,1219.000,1253.000,1222.000,1228.000,1203.000
1048.994,1256.000,1271.000,1273.000,1282.000,1258.000,1267.000
1061.109,1272.000,1257.000,1281.000,1265.000,1245.000,1241.000
1073.206,1199.000,1197.000,1212.000,1211.000,1224.000,1220.000
1085.287,1143.000,1130.000,1135.000,1163.000,1130.000,1152.000
1097.351,1074.000,1060.000,1060.000,1043.000,1059.000,1078.000
1109.401,1058.000,1029.000,1031.000,1052.000,1058.000,1043.000
1121.432,1022.000,1052.000,1054.000,1045.000,1027.000,1073.000
1133.447,1065.000,1067.000,1070.000,1071.000,1040.000,1077.000
1145.447,1089.000,1080.000,1088.000,1086.000,1101.000,1090.000
1157.430,1118.000,1135.000,1102.000,1118.000,1091.000,1089.000
1169.397,1143.000,1102.000,1110.000,1124.000,1099.000,1129.000
1181.347,1117.000,1130.000,1120.000,1134.000,1113.000,1141.000
1193.282,1111.000,1129.000,1111.000,1116.000,1087.000,1104.000
1205.200,1101.000,1093.000,1075.000,1093.000,1080.000,1099.000
1217.103,1082.000,1087.000,1068.000,1062.000,1068.000,1061.000
1228.988,1034.000,1048.000,1025.000,1037.000,1021.000,1028.000
1240.858,985.000,1010.000,1005.000,1032.000,1018.000,983.000
1252.712,984.000,971.000,961.000,991.000,962.000,956.000
1264.549,935.000,972.000,963.000,956.000,947.000,973.000
1276.372,943.000,944.000,949.000,955.000,966.000,930.000
1288.177,934.000,931.000,920.000,926.000,934.000,931.000
1299.969,931.000,957.000,944.000,931.000,947.000,933.000
1311.742,953.000,930.000,940.000,929.000,929.000,924.000
1323.501,919.000,941.000,952.000,929.000,952.000,945.000
1335.243,930.000,927.000,923.000,927.000,946.000,945.000
1346.970,930.000,935.000,923.000,920.000,931.000,928.000
1358.680,934.000,921.000,929.000,927.000,938.000,925.000
1370.376,941.000,959.000,944.000,946.000,918.000,947.000
1382.057,922.000,946.000,932.000,934.000,941.000,943.000
1393.719,942.000,944.000,922.000,934.000,923.000,939.000
1405.369,925.000,933.000,937.000,930.000,948.000,923.000
1417.001,942.000,925.000,926.000,945.000,922.000,930.000
1428.619,924.000,932.000,925.000,912.000,923.000,922.000
1440.220,946.000,939.000,931.000,929.000,935.000,945.000
1451.807,921.000,938.000,927.000,938.000,958.000,935.000
1463.377,934.000,957.000,952.000,925.000,936.000,951.000
1474.934,968.000,955.000,961.000,949.000,943.000,936.000
1486.473,961.000,946.000,959.000,938.000,955.000,949.000
1497.997,960.000,951.000,953.000,935.000,977.000,939.000
1509.507,936.000,960.000,945.000,973.000,950.000,941.000
1521.001,962.000,967.000,961.000,936.000,962.000,955.000
1532.480,952.000,945.000,949.000,955.000,931.000,949.000
1543.943,952.000,959.000,971.000,985.000,958.000,967.000
1555.392,966.000,955.000,981.000,945.000,976.000,978.000
1566.824,971.000,963.000,966.000,984.000,979.000,976.000
1578.243,986.000,980.000,982.000,977.000,994.000,974.000
1589.645,1028.000,978.000,1003.000,1004.000,1011.000,1001.000
1601.034,1020.000,1026.000,1024.000,1044.000,1026.000,1019.000
1612.405,1071.000,1032.000,1063.000,1057.000,1047.000,1066.000
1623.763,1072.000,1025.000,1039.000,1019.000,1028.000,1032.000
1635.106,1011.000,1019.000,997.000,1014.000,1035.000,1020.000
1646.432,1001.000,983.000,989.000,1016.000,982.000,1001.000
1657.747,999.000,1007.000,990.000,983.000,964.000,986.000
1669.044,989.000,964.000,973.000,980.000,979.000,975.000
1680.328,961.000,981.000,967.000,979.000,973.000,953.000
1691.594,968.000,984.000,960.000,968.000,967.000,973.000
1702.848,954.000,975.000,987.000,957.000,949.000,953.000
1714.086,965.000,946.000,935.000,976.000,989.000,975.000
1725.311,970.000,949.000,967.000,974.000,980.000,973.000
1736.519,972.000,960.000,984.000,952.000,957.000,951.000
1747.712,968.000,976.000,980.000,966.000,934.000,959.000
1758.893,985.000,980.000,984.000,959.000,960.000,956.000
1770.057,972.000,958.000,968.000,974.000,959.000,929.000
1781.209,967.000,976.000,989.000,964.000,967.000,955.000
1792.343,971.000,985.000,981.000,971.000,984.000,979.000
1803.465,972.000,983.000,957.000,989.000,957.000,966.000
1814.571,1000.000,1012.000,995.000,992.000,980.000,1012.000
1816.157,994.000,1002.000,988.000,998.000,994.000,994.000