File: Raman/Silica/2025_09_12_12pct_Hydrated_SiO2_Glass_on_DAC_Culet_50X_532nm_74mW_Andor750_600gv_1030wn_6accum_30s_DePol_Loc5_DAC2.csv
23.130,2801.000,2751.000,2720.000,2742.000,2704.000,2717.000
34.751,2464.000,2428.000,2485.000,2483.000,2435.000,2456.000
46.355,2590.000,2643.000,2596.000,2594.000,2563.000,2555.000
57.946,2532.000,2507.000,2514.000,2508.000,2553.000,2516.000
69.523,2492.000,2501.000,2495.000,2469.000,2472.000,2435.000
81.084,2264.000,2256.000,2277.000,2263.000,2289.000,2283.000
92.632,2163.000,2177.000,2177.000,2131.000,2136.000,2147.000
104.167,1971.000,1935.000,2007.000,1993.000,1983.000,2017.000
115.685,1966.000,1936.000,1944.000,1930.000,1933.000,1968.000
127.190,1778.000,1766.000,1756.000,1748.000,1727.000,1744.000
138.683,1692.000,1687.000,1747.000,1687.000,1650.000,1683.000
150.158,1591.000,1597.000,1616.000,1590.000,1609.000,1599.000
161.621,1547.000,1542.000,1555.000,1522.000,1547.000,1536.000
173.071,1499.000,1483.000,1460.000,1435.000,1495.000,1461.000
184.504,1430.000,1424.000,1430.000,1432.000,1405.000,1443.000
195.925,1409.000,1413.000,1381.000,1385.000,1421.000,1359.000
207.333,1340.000,1356.000,1375.000,1353.000,1382.000,1347.000
218.724,1331.000,1315.000,1327.000,1324.000,1334.000,1310.000
230.104,1328.000,1342.000,1321.000,1336.000,1266.000,1308.000
241.469,1283.000,1288.000,1304.000,1289.000,1304.000,1303.000
252.819,1299.000,1273.000,1290.000,1289.000,1274.000,1272.000
264.156,1255.000,1274.000,1292.000,1287.000,1261.000,1256.000
275.480,1269.000,1282.000,1266.000,1284.000,1279.000,1258.000
286.790,1249.000,1273.000,1276.000,1298.000,1271.000,1254.000
298.084,1267.000,1288.000,1279.000,1240.000,1253.000,1251.000
309.367,1277.000,1265.000,1259.000,1260.000,1285.000,1261.000
320.635,1272.000,1244.000,1282.000,1259.000,1282.000,1256.000
331.888,1291.000,1293.000,1268.000,1243.000,1278.000,1243.000
343.130,1326.000,1295.000,1280.000,1279.000,1264.000,1260.000
354.357,1327.000,1291.000,1306.000,1256.000,1271.000,1276.000
365.569,1319.000,1291.000,1289.000,1292.000,1286.000,1268.000
376.770,1343.000,1302.000,1302.000,1281.000,1279.000,1292.000
387.956,1321.000,1305.000,1316.000,1310.000,1286.000,1305.000
399.127,1329.000,1323.000,1319.000,1312.000,1319.000,1326.000
410.287,1315.000,1334.000,1328.000,1334.000,1296.000,1318.000
421.432,1315.000,1335.000,1363.000,1318.000,1330.000,1295.000
432.563,1336.000,1364.000,1369.000,1328.000,1336.000,1332.000
443.683,1386.000,1351.000,1358.000,1359.000,1323.000,1334.000
454.788,1396.000,1384.000,1374.000,1386.000,1377.000,1340.000
465.879,1415.000,1394.000,1390.000,1398.000,1386.000,1362.000
476.957,1399.000,1386.000,1415.000,1384.000,1371.000,1357.000
488.022,1366.000,1367.000,1371.000,1383.000,1363.000,1337.000
499.072,1258.000,1260.000,1256.000,1259.000,1251.000,1236.000
510.111,1135.000,1119.000,1105.000,1098.000,1105.000,1098.000
521.136,1041.000,1021.000,1012.000,1019.000,1057.000,1032.000
532.147,1009.000,992.000,986.000,1002.000,985.000,1011.000
543.145,966.000,975.000,957.000,963.000,955.000,950.000
554.131,949.000,952.000,949.000,957.000,924.000,948.000
565.100,932.000,943.000,918.000,917.000,924.000,906.000
576.060,911.000,914.000,901.000,898.000,906.000,908.000
587.006,916.000,909.000,884.000,904.000,904.000,910.000
597.937,889.000,897.000,896.000,902.000,864.000,886.000
608.856,906.000,886.000,904.000,878.000,902.000,885.000
619.763,872.000,889.000,897.000,869.000,887.000,869.000
630.655,884.000,867.000,875.000,865.000,864.000,856.000
641.535,869.000,880.000,858.000,863.000,856.000,868.000
652.403,879.000,878.000,867.000,861.000,863.000,855.000
663.256,881.000,875.000,862.000,844.000,850.000,861.000
674.097,877.000,874.000,862.000,842.000,848.000,855.000
684.926,875.000,866.000,870.000,863.000,869.000,870.000
695.739,875.000,874.000,860.000,875.000,873.000,845.000
706.542,894.000,860.000,872.000,881.000,880.000,857.000
717.332,878.000,882.000,866.000,874.000,860.000,871.000
728.106,889.000,878.000,880.000,877.000,885.000,868.000
738.871,888.000,886.000,873.000,871.000,862.000,877.000
749.622,893.000,873.000,877.000,883.000,893.000,868.000
760.360,898.000,885.000,917.000,893.000,894.000,907.000
771.085,969.000,961.000,929.000,947.000,955.000,939.000
781.797,1042.000,1017.000,1022.000,1032.000,1016.000,1006.000
792.498,1025.000,1051.000,1021.000,1024.000,1015.000,998.000
803.184,1005.000,1012.000,1027.000,1022.000,1009.000,1031.000
813.859,1015.000,1002.000,983.000,1006.000,981.000,994.000
824.520,959.000,971.000,958.000,972.000,966.000,945.000
835.169,938.000,947.000,931.000,920.000,918.000,915.000
845.806,938.000,895.000,892.000,885.000,891.000,873.000
856.430,879.000,895.000,860.000,868.000,885.000,850.000
867.040,887.000,892.000,874.000,867.000,880.000,842.000
877.640,897.000,868.000,866.000,891.000,875.000,842.000
888.226,890.000,864.000,870.000,883.000,867.000,874.000
898.798,894.000,882.000,895.000,885.000,857.000,863.000
909.360,897.000,885.000,888.000,890.000,882.000,884.000
919.909,921.000,906.000,910.000,895.000,914.000,886.000
930.444,936.000,915.000,920.000,929.000,911.000,902.000
940.968,936.000,962.000,926.000,941.000,919.000,951.000
951.481,976.000,951.000,947.000,969.000,961.000,957.000
961.979,1003.000,967.000,979.000,960.000,1002.000,959.000
972.466,977.000,976.000,973.000,969.000,981.000,988.000
982.941,977.000,966.000,959.000,962.000,955.000,955.000
993.402,955.000,934.000,926.000,912.000,937.000,908.000
1003.852,921.000,907.000,929.000,903.000,910.000,883.000
1014.290,905.000,898.000,904.000,896.000,897.000,889.000
1024.714,889.000,919.000,898.000,896.000,893.000,895.000
1035.128,943.000,935.000,908.000,917.000,893.000,912.000
1045.530,938.000,940.000,925.000,933.000,910.000,937.000
1055.917,951.000,931.000,920.000,915.000,927.000,930.000
1066.294,930.000,919.000,910.000,936.000,915.000,918.000
1076.660,925.000,940.000,929.000,903.000,914.000,910.000
1087.011,905.000,893.000,895.000,894.000,892.000,887.000
1097.351,884.000,878.000,860.000,861.000,848.000,853.000
1107.681,866.000,856.000,863.000,869.000,859.000,865.000
1117.995,865.000,861.000,859.000,869.000,861.000,847.000
1128.300,872.000,859.000,854.000,866.000,869.000,863.000
1138.593,906.000,888.000,872.000,859.000,869.000,855.000
1148.872,910.000,895.000,886.000,900.000,874.000,862.000
1159.141,909.000,891.000,890.000,902.000,895.000,893.000
1169.397,914.000,913.000,903.000,895.000,906.000,888.000
1179.641,889.000,891.000,915.000,896.000,894.000,882.000
1189.874,906.000,890.000,904.000,915.000,921.000,881.000
1200.095,897.000,884.000,886.000,905.000,892.000,876.000
1210.302,905.000,890.000,901.000,881.000,870.000,866.000
1220.499,876.000,897.000,891.000,897.000,884.000,862.000
1230.685,880.000,883.000,886.000,876.000,867.000,872.000
1240.858,860.000,867.000,879.000,851.000,863.000,854.000
1251.020,864.000,866.000,865.000,851.000,845.000,839.000
1261.170,859.000,868.000,866.000,855.000,852.000,848.000
1271.308,859.000,873.000,862.000,836.000,839.000,835.000
1281.433,874.000,850.000,847.000,860.000,835.000,842.000
1291.548,872.000,847.000,838.000,857.000,861.000,820.000
1301.652,873.000,869.000,840.000,861.000,835.000,846.000
1311.742,864.000,849.000,857.000,857.000,851.000,856.000
1321.822,977.000,976.000,946.000,974.000,966.000,963.000
1331.891,1311.000,1322.000,1334.000,1265.000,1298.000,1301.000
1341.946,878.000,871.000,860.000,862.000,864.000,848.000
1351.991,855.000,855.000,858.000,854.000,848.000,826.000
1362.025,862.000,859.000,848.000,853.000,852.000,855.000
1372.045,863.000,858.000,842.000,846.000,819.000,832.000
1382.057,865.000,838.000,826.000,843.000,843.000,820.000
1392.056,868.000,854.000,834.000,838.000,835.000,808.000
1402.042,855.000,853.000,844.000,847.000,844.000,825.000
1412.017,854.000,855.000,843.000,855.000,842.000,831.000
1421.982,868.000,838.000,835.000,844.000,836.000,833.000
1431.935,878.000,831.000,850.000,843.000,834.000,852.000
1441.877,863.000,863.000,857.000,871.000,845.000,845.000
1451.807,862.000,840.000,846.000,845.000,847.000,849.000
1461.725,857.000,842.000,834.000,846.000,841.000,833.000
1471.632,864.000,845.000,823.000,859.000,842.000,828.000
1481.530,867.000,847.000,859.000,847.000,836.000,838.000
1491.414,854.000,854.000,857.000,851.000,851.000,841.000
1501.287,859.000,850.000,839.000,839.000,850.000,828.000
1511.151,870.000,835.000,860.000,841.000,847.000,844.000
1521.001,861.000,845.000,854.000,861.000,847.000,836.000
1530.840,856.000,872.000,857.000,867.000,848.000,831.000
1540.670,872.000,877.000,852.000,855.000,835.000,823.000
1550.486,876.000,859.000,858.000,872.000,865.000,834.000
1560.293,871.000,856.000,857.000,861.000,856.000,834.000
1570.088,881.000,853.000,853.000,857.000,856.000,853.000
1579.872,888.000,863.000,849.000,852.000,841.000,827.000
1589.645,867.000,877.000,860.000,863.000,878.000,843.000
1599.408,871.000,875.000,871.000,862.000,867.000,841.000
1609.158,898.000,874.000,866.000,861.000,873.000,839.000
1618.898,875.000,878.000,886.000,881.000,866.000,867.000
1628.627,875.000,869.000,861.000,881.000,854.000,848.000
1638.345,889.000,865.000,868.000,875.000,866.000,887.000
1648.050,872.000,867.000,851.000,857.000,866.000,855.000
1657.747,882.000,872.000,869.000,850.000,858.000,852.000
1667.431,866.000,860.000,849.000,866.000,854.000,826.000
1677.104,857.000,840.000,865.000,853.000,854.000,839.000
1686.768,870.000,888.000,858.000,862.000,856.000,843.000
1696.420,871.000,874.000,851.000,848.000,847.000,839.000
1706.060,865.000,864.000,844.000,844.000,840.000,851.000
1715.691,883.000,856.000,832.000,836.000,830.000,842.000
1725.311,860.000,849.000,838.000,866.000,839.000,846.000
1734.918,850.000,846.000,854.000,842.000,835.000,831.000
1744.517,854.000,840.000,843.000,851.000,847.000,830.000
1754.104,862.000,865.000,855.000,859.000,861.000,858.000
1763.679,871.000,867.000,863.000,841.000,855.000,837.000
1773.245,863.000,851.000,868.000,858.000,863.000,823.000
1782.800,870.000,853.000,862.000,857.000,848.000,828.000
1792.343,879.000,851.000,856.000,839.000,855.000,837.000
1801.877,873.000,860.000,869.000,836.000,870.000,855.000
1811.400,878.000,880.000,845.000,871.000,881.000,853.000
1816.157,886.000,887.000,863.000,887.000,869.000,857.000