File: Raman/Silica/2025_08_22_BB1392_SiO2_8wtPctH2O_Glass_50X_532nm_6mW_Kymera328_600gv_3600wn_3accum_30s_Unpol_Pos2.csv
2010.804,3182.000,3194.000,3201.000
2024.460,3186.000,3187.000,3191.000
2038.093,3183.000,3176.000,3180.000
2051.704,3194.000,3199.000,3195.000
2065.292,3193.000,3180.000,3203.000
2078.861,3185.000,3185.000,3186.000
2092.404,3186.000,3187.000,3183.000
2105.928,3186.000,3201.000,3205.000
2119.431,3200.000,3191.000,3184.000
2132.909,3182.000,3199.000,3196.000
2146.367,3189.000,3180.000,3203.000
2159.803,3183.000,3191.000,3183.000
2173.217,3197.000,3184.000,3200.000
2186.611,3187.000,3201.000,3196.000
2199.981,3187.000,3194.000,3196.000
2213.332,3177.000,3197.000,3177.000
2226.659,3197.000,3195.000,3194.000
2239.967,3203.000,3182.000,3181.000
2253.251,3184.000,3199.000,3187.000
2266.516,3195.000,3190.000,3196.000
2279.760,3196.000,3202.000,3201.000
2292.980,3194.000,3194.000,3199.000
2306.181,3199.000,3201.000,3189.000
2319.359,3191.000,3214.000,3202.000
2332.519,3218.000,3200.000,3194.000
2345.658,3193.000,3206.000,3209.000
2358.773,3206.000,3204.000,3197.000
2371.869,3203.000,3224.000,3189.000
2384.943,3197.000,3190.000,3202.000
2397.997,3198.000,3201.000,3197.000
2411.030,3208.000,3182.000,3202.000
2424.042,3217.000,3206.000,3200.000
2437.036,3195.000,3195.000,3212.000
2450.005,3183.000,3211.000,3212.000
2462.957,3207.000,3216.000,3188.000
2475.886,3190.000,3214.000,3189.000
2488.796,3199.000,3217.000,3195.000
2501.684,3228.000,3226.000,3190.000
2514.554,3210.000,3198.000,3204.000
2527.403,3192.000,3190.000,3200.000
2540.231,3206.000,3204.000,3213.000
2553.040,3206.000,3207.000,3196.000
2565.827,3195.000,3212.000,3205.000
2578.595,3218.000,3220.000,3185.000
2591.344,3196.000,3215.000,3212.000
2604.071,3218.000,3217.000,3210.000
2616.778,3205.000,3219.000,3208.000
2629.465,3223.000,3223.000,3208.000
2642.135,3214.000,3218.000,3205.000
2654.782,3210.000,3200.000,3210.000
2667.411,3235.000,3207.000,3217.000
2680.020,3215.000,3225.000,3229.000
2692.608,3232.000,3217.000,3239.000
2705.178,3216.000,3237.000,3219.000
2717.727,3237.000,3226.000,3248.000
2730.258,3229.000,3222.000,3224.000
2742.769,3239.000,3248.000,3238.000
2755.259,3249.000,3256.000,3237.000
2767.731,3252.000,3243.000,3235.000
2780.183,3255.000,3258.000,3260.000
2792.617,3261.000,3273.000,3270.000
2805.029,3281.000,6523.000,3267.000
2817.424,3266.000,3267.000,3271.000
2829.800,3288.000,3272.000,3272.000
2842.155,3304.000,3281.000,3317.000
2854.493,3297.000,3324.000,3311.000
2866.809,3314.000,3304.000,3313.000
2879.110,3316.000,3302.000,3324.000
2891.388,3321.000,3330.000,3358.000
2903.650,3359.000,3365.000,3384.000
2915.893,3408.000,3411.000,3391.000
2928.115,3397.000,3400.000,3383.000
2940.320,3377.000,3369.000,3391.000
2952.505,3412.000,3398.000,3389.000
2964.673,3417.000,3428.000,3411.000
2976.822,3438.000,3416.000,3427.000
2988.950,3418.000,3430.000,3442.000
3001.062,3426.000,3436.000,3453.000
3013.154,3463.000,3436.000,3447.000
3025.229,3473.000,3451.000,3468.000
3037.283,3498.000,3510.000,3475.000
3049.321,3493.000,3500.000,3507.000
3061.341,3504.000,3533.000,3512.000
3073.341,3558.000,3532.000,3526.000
3085.323,3561.000,3547.000,3535.000
3097.286,3558.000,3553.000,3547.000
3109.233,3575.000,3592.000,3610.000
3121.161,3579.000,3629.000,3620.000
3133.069,3675.000,3623.000,3614.000
3144.962,3678.000,3666.000,3688.000
3156.834,3659.000,3671.000,3707.000
3168.690,3718.000,3716.000,3753.000
3180.527,3702.000,3739.000,3758.000
3192.346,3778.000,3740.000,3761.000
3204.148,3771.000,3783.000,3796.000
3215.931,3797.000,3831.000,3784.000
3227.698,3791.000,3832.000,3871.000
3239.446,3847.000,3827.000,3823.000
3251.177,3845.000,3840.000,3842.000
3262.888,3843.000,3849.000,3880.000
3274.584,3876.000,3895.000,3840.000
3286.262,3923.000,3876.000,3921.000
3297.921,3922.000,3887.000,3924.000
3309.565,3912.000,3931.000,3947.000
3321.189,3936.000,3921.000,3954.000
3332.797,3944.000,3974.000,3964.000
3344.387,4010.000,3998.000,3992.000
3355.960,4044.000,4019.000,4037.000
3367.515,4008.000,4051.000,4016.000
3379.053,4075.000,4076.000,4046.000
3390.575,4082.000,4050.000,4088.000
3402.078,4110.000,4087.000,4113.000
3413.565,4101.000,4148.000,4107.000
3425.035,4114.000,4124.000,4097.000
3436.486,4135.000,4144.000,4154.000
3447.922,4120.000,4156.000,4132.000
3459.339,4166.000,4192.000,4167.000
3470.742,4167.000,4194.000,4159.000
3482.126,4179.000,4202.000,4162.000
3493.493,4180.000,4226.000,4181.000
3504.845,4211.000,4246.000,4211.000
3516.178,4272.000,4200.000,4266.000
3527.494,4241.000,4285.000,4245.000
3538.794,4302.000,4302.000,4315.000
3550.079,4359.000,4399.000,4370.000
3561.346,4438.000,4426.000,4457.000
3572.595,4566.000,4489.000,4541.000
3583.829,4579.000,4590.000,4577.000
3595.046,4542.000,4525.000,4519.000
3606.247,4419.000,4409.000,4403.000
3617.430,4333.000,4328.000,4325.000
3628.599,4298.000,4303.000,4301.000
3639.750,4264.000,4287.000,4253.000
3650.884,4213.000,4151.000,4186.000
3662.003,4017.000,4022.000,4021.000
3673.104,3813.000,3820.000,3838.000
3684.191,3599.000,3602.000,3606.000
3695.259,3461.000,3471.000,3461.000
3706.313,3387.000,3396.000,3394.000
3717.351,3353.000,3312.000,3349.000
3728.371,3323.000,3305.000,3323.000
3739.377,3300.000,3299.000,3283.000
3750.367,3291.000,3291.000,3304.000
3761.339,3303.000,3277.000,3272.000
3772.296,3276.000,3288.000,3272.000
3783.237,3271.000,3272.000,3267.000
3794.162,3254.000,3262.000,3256.000
3805.070,3237.000,3263.000,3257.000
3815.965,3258.000,3248.000,3279.000
3826.842,3258.000,3263.000,3274.000
3837.703,3271.000,3274.000,3262.000
3848.549,3243.000,3263.000,3247.000
3859.379,3271.000,3241.000,3263.000
3870.194,3266.000,3251.000,3267.000
3880.992,3252.000,3258.000,3260.000
3891.777,3257.000,3270.000,3271.000
3902.545,3257.000,3246.000,3258.000
3913.296,3249.000,3253.000,3254.000
3924.033,3257.000,3244.000,3251.000
3934.754,3273.000,3264.000,3242.000
3945.460,3252.000,3244.000,3255.000
3956.150,3236.000,3244.000,3258.000
3966.825,3249.000,3255.000,3259.000
3977.485,3246.000,3248.000,3254.000
3988.129,3245.000,3241.000,3243.000
3998.758,3244.000,3244.000,3230.000
4009.371,3242.000,3249.000,3240.000
4019.970,3256.000,3230.000,3242.000
4030.553,3245.000,3239.000,3231.000
4041.121,3251.000,3238.000,3238.000
4051.675,3236.000,3242.000,3260.000
4062.212,3235.000,3232.000,3220.000
4072.736,3230.000,3219.000,3234.000
4083.244,3227.000,3243.000,3220.000
4093.736,3213.000,3228.000,3233.000
4104.215,3221.000,3240.000,3215.000
4114.677,3228.000,3240.000,3235.000
4125.126,3245.000,3219.000,3222.000
4135.558,3236.000,3213.000,3219.000
4145.978,3242.000,3216.000,3227.000
4156.382,3234.000,3212.000,3224.000
4166.770,3219.000,3221.000,3217.000
4177.144,3217.000,3226.000,3202.000
4187.503,3219.000,3198.000,3210.000
4197.849,3215.000,3217.000,3224.000
4208.178,3210.000,3219.000,3247.000
4218.494,3219.000,3218.000,3212.000
4228.795,3214.000,3204.000,3215.000
4239.082,3198.000,3217.000,3219.000
4249.354,3231.000,3207.000,3221.000
4259.611,3210.000,3217.000,3221.000
4269.854,3208.000,3230.000,3217.000
4280.082,3208.000,3202.000,3235.000
4290.296,3221.000,3229.000,3205.000
4300.497,3213.000,3207.000,3203.000
4310.682,3197.000,3217.000,3199.000
4320.853,3203.000,3210.000,3214.000
4331.009,3210.000,3198.000,3197.000
4341.152,3210.000,3217.000,3203.000
4351.281,3223.000,3195.000,3219.000
4361.395,3212.000,3213.000,3206.000
4371.496,3221.000,3211.000,3207.000
4381.581,3206.000,3199.000,3212.000
4391.653,3214.000,3214.000,3207.000
4401.711,3208.000,3215.000,3212.000
4411.755,3208.000,3211.000,3222.000
4421.785,3199.000,3193.000,3208.000
4431.800,3208.000,3198.000,3215.000
4441.803,3211.000,3214.000,3200.000
4451.790,3190.000,3210.000,3220.000
4461.765,3219.000,3186.000,3202.000
4471.725,3216.000,3203.000,3201.000
4481.670,3194.000,3200.000,3206.000
4491.604,3208.000,3202.000,3204.000
4501.522,3182.000,3206.000,3201.000
4511.427,3214.000,3203.000,3206.000
4521.318,3216.000,3197.000,3198.000
4531.196,3211.000,3183.000,3207.000
4541.061,3206.000,3197.000,3199.000
4550.911,3206.000,3191.000,3184.000
4560.748,3205.000,3214.000,3203.000
4570.570,3194.000,3180.000,3203.000
4580.380,3199.000,3188.000,3202.000
4590.175,3204.000,3196.000,3186.000
4599.959,3191.000,3181.000,3201.000
4609.728,3207.000,3207.000,3197.000
4619.484,3193.000,3192.000,3185.000
4629.227,3193.000,3186.000,3199.000
4638.955,3197.000,3205.000,3193.000
4648.671,3201.000,3199.000,3180.000
4658.373,3177.000,3191.000,3202.000
4668.062,3187.000,3194.000,3179.000
4677.738,3182.000,3179.000,3182.000
4687.400,3178.000,3181.000,3179.000
4697.049,3187.000,3183.000,3187.000
4706.685,3197.000,3182.000,3202.000
4716.308,3181.000,3197.000,3180.000
4725.918,3196.000,3183.000,3169.000
4735.514,3195.000,3185.000,3186.000
4745.099,3182.000,3192.000,3196.000
4754.668,3190.000,3205.000,3194.000
4764.226,3188.000,3196.000,3186.000
4773.770,3187.000,3196.000,3196.000
4783.301,3198.000,3193.000,3185.000
4792.821,3201.000,3198.000,3193.000
4802.326,3176.000,3187.000,3198.000
4811.818,4896.000,3191.000,3197.000
4821.298,3212.000,3207.000,3181.000
4830.765,3197.000,3205.000,3208.000
4840.220,3197.000,3199.000,3197.000
4849.662,3205.000,3208.000,3212.000
4859.090,3206.000,3220.000,3191.000
4868.506,3196.000,3194.000,3226.000
4877.909,3209.000,3216.000,3222.000
4887.299,3236.000,3206.000,3222.000
4896.677,3218.000,3235.000,3223.000
4903.703,3246.000,3235.000,3221.000