File: Raman/Silica/2025_09_09_8pct_Hydrated_SiO2_Glass_50X_532nm_74mW_Andor750_600gv_1030wn_6accum_30s_UnPol_Loc1.csv
23.130,13373.000,13492.000,13369.000,13363.000,13378.000,13553.000
36.684,14155.000,14181.000,14154.000,14203.000,14202.000,14145.000
50.221,16507.000,16775.000,16683.000,16683.000,16550.000,16647.000
63.736,17286.000,17081.000,17274.000,17269.000,17248.000,17302.000
77.233,17022.000,17103.000,16927.000,16998.000,17018.000,17044.000
90.708,15849.000,15884.000,15840.000,15760.000,15783.000,15865.000
104.167,14609.000,14614.000,14626.000,14762.000,14683.000,14578.000
117.603,13633.000,13667.000,13476.000,13611.000,13563.000,13592.000
131.024,12686.000,12674.000,12752.000,12637.000,12627.000,12704.000
144.422,12051.000,11909.000,11907.000,11852.000,11956.000,11800.000
157.804,11150.000,11306.000,11121.000,11053.000,11059.000,11193.000
171.164,10469.000,10445.000,10364.000,10431.000,10475.000,10563.000
184.504,9874.000,9972.000,9963.000,9931.000,9889.000,10010.000
197.829,9707.000,9653.000,9667.000,9616.000,9618.000,9603.000
211.132,9565.000,9466.000,9567.000,9522.000,9538.000,9555.000
224.417,9593.000,9459.000,9551.000,9572.000,9561.000,9563.000
237.681,9446.000,9410.000,9507.000,9459.000,9444.000,9341.000
250.929,9374.000,9304.000,9187.000,9303.000,9415.000,9440.000
264.156,9425.000,9446.000,9443.000,9403.000,9350.000,9374.000
277.367,9594.000,9627.000,9634.000,9611.000,9573.000,9569.000
290.556,9891.000,9983.000,9924.000,9772.000,9854.000,9789.000
303.728,10426.000,10220.000,10218.000,10270.000,10122.000,10340.000
316.880,10610.000,10592.000,10527.000,10701.000,10381.000,10519.000
330.014,10679.000,10745.000,10691.000,10660.000,10611.000,10613.000
343.130,11274.000,11299.000,11339.000,11203.000,11342.000,11216.000
356.226,11845.000,11802.000,11698.000,11762.000,11647.000,11656.000
369.305,12609.000,12435.000,12506.000,12364.000,12389.000,12478.000
382.363,13089.000,12880.000,12995.000,12860.000,13066.000,12809.000
395.405,13353.000,13370.000,13252.000,13301.000,13384.000,13288.000
408.428,13752.000,13768.000,13752.000,13700.000,13886.000,13684.000
421.432,14201.000,14220.000,14196.000,14182.000,14160.000,14200.000
434.417,14886.000,14833.000,14979.000,14851.000,14907.000,14617.000
447.386,15726.000,15643.000,15615.000,15682.000,15647.000,15527.000
460.335,16698.000,16725.000,16755.000,16675.000,16503.000,16626.000
473.265,17789.000,17866.000,17803.000,17777.000,17866.000,17727.000
486.179,18387.000,18438.000,18386.000,18410.000,18394.000,18318.000
499.072,15831.000,15833.000,15814.000,15928.000,15920.000,16004.000
511.950,11396.000,11335.000,11242.000,11229.000,11332.000,11354.000
524.807,8431.000,8386.000,8399.000,8384.000,8325.000,8342.000
537.649,7068.000,7072.000,7031.000,6943.000,7103.000,7013.000
550.469,6227.000,6127.000,6290.000,6192.000,6247.000,6119.000
563.275,5574.000,5602.000,5533.000,5613.000,5588.000,5625.000
576.060,5119.000,5006.000,5092.000,5017.000,4994.000,5016.000
588.829,4640.000,4537.000,4556.000,4617.000,4561.000,4524.000
601.579,4342.000,4315.000,4269.000,4244.000,4277.000,4283.000
614.310,3993.000,3920.000,3903.000,3870.000,3913.000,3955.000
627.026,3645.000,3563.000,3640.000,3672.000,3588.000,3584.000
639.723,3442.000,3360.000,3366.000,3348.000,3406.000,3355.000
652.403,3281.000,3231.000,3254.000,3248.000,3221.000,3260.000
665.064,3191.000,3179.000,3179.000,3166.000,3176.000,3134.000
677.709,3117.000,3079.000,3071.000,3014.000,3035.000,3036.000
690.334,3078.000,2990.000,2965.000,2997.000,2957.000,3020.000
702.944,2993.000,2970.000,2927.000,2952.000,2903.000,2941.000
715.535,2936.000,2930.000,2937.000,2876.000,2918.000,2871.000
728.106,2872.000,2835.000,2861.000,2813.000,2850.000,2839.000
740.664,2847.000,2877.000,2897.000,2861.000,2844.000,2820.000
753.202,2886.000,2913.000,2808.000,2829.000,2861.000,2815.000
765.725,3049.000,3065.000,3007.000,2941.000,3005.000,2998.000
778.228,3871.000,3870.000,3868.000,3856.000,3777.000,3804.000
790.716,4260.000,4225.000,4236.000,4241.000,4146.000,4168.000
803.184,4237.000,4125.000,4165.000,4144.000,4035.000,4134.000
815.637,3949.000,3873.000,3917.000,3863.000,3863.000,3885.000
828.071,3520.000,3470.000,3526.000,3474.000,3534.000,3428.000
840.489,2977.000,2935.000,2915.000,2954.000,2923.000,2919.000
852.890,2640.000,2601.000,2514.000,2567.000,2545.000,2490.000
865.272,2552.000,2542.000,2482.000,2513.000,2428.000,2468.000
877.640,2595.000,2572.000,2561.000,2536.000,2488.000,2510.000
889.988,2758.000,2722.000,2725.000,2734.000,2727.000,2671.000
902.321,3018.000,2980.000,2990.000,2875.000,2959.000,2899.000
914.635,3201.000,3208.000,3133.000,3108.000,3144.000,3071.000
926.934,3559.000,3454.000,3456.000,3431.000,3410.000,3393.000
939.215,4036.000,4043.000,3949.000,3934.000,3881.000,3918.000
951.481,4589.000,4680.000,4604.000,4554.000,4645.000,4575.000
963.727,5343.000,5333.000,5254.000,5205.000,5199.000,5150.000
975.959,5348.000,5334.000,5373.000,5265.000,5283.000,5207.000
988.172,4372.000,4452.000,4415.000,4439.000,4399.000,4322.000
1000.369,3517.000,3486.000,3427.000,3472.000,3417.000,3379.000
1012.551,2985.000,2978.000,2967.000,2926.000,2896.000,2963.000
1024.714,2845.000,2809.000,2815.000,2756.000,2764.000,2740.000
1036.863,2803.000,2804.000,2762.000,2810.000,2792.000,2756.000
1048.994,2898.000,2874.000,2845.000,2748.000,2840.000,2798.000
1061.109,2862.000,2829.000,2819.000,2755.000,2775.000,2772.000
1073.206,2746.000,2705.000,2716.000,2645.000,2687.000,2681.000
1085.287,2548.000,2546.000,2467.000,2515.000,2469.000,2471.000
1097.351,2386.000,2351.000,2303.000,2295.000,2301.000,2268.000
1109.401,2291.000,2235.000,2169.000,2181.000,2162.000,2179.000
1121.432,2259.000,2256.000,2170.000,2187.000,2150.000,2150.000
1133.447,2247.000,2270.000,2217.000,2205.000,2190.000,2160.000
1145.447,2298.000,2238.000,2239.000,2229.000,2217.000,2195.000
1157.430,2337.000,2282.000,2249.000,2268.000,2261.000,2222.000
1169.397,2299.000,2301.000,2262.000,2285.000,2235.000,2205.000
1181.347,2318.000,2221.000,2235.000,2199.000,2178.000,2194.000
1193.282,2251.000,2270.000,2208.000,2179.000,2181.000,2184.000
1205.200,2195.000,2159.000,2178.000,2107.000,2105.000,2085.000
1217.103,2105.000,2066.000,2056.000,2022.000,2033.000,2039.000
1228.988,2037.000,1982.000,1944.000,1902.000,1905.000,1886.000
1240.858,1902.000,1831.000,1817.000,1818.000,1830.000,1750.000
1252.712,1842.000,1810.000,1791.000,1709.000,1733.000,1703.000
1264.549,1795.000,1748.000,1808.000,1705.000,1695.000,1689.000
1276.372,1816.000,1743.000,1701.000,1678.000,1698.000,1644.000
1288.177,1660.000,1681.000,1627.000,1620.000,1603.000,1610.000
1299.969,1680.000,1661.000,1617.000,1639.000,1582.000,1555.000
1311.742,1685.000,1630.000,1603.000,1580.000,1564.000,1567.000
1323.501,1660.000,1656.000,1580.000,1578.000,1567.000,1539.000
1335.243,1661.000,1615.000,1574.000,1602.000,1555.000,1589.000
1346.970,1672.000,1579.000,1605.000,1598.000,1579.000,1554.000
1358.680,1682.000,1695.000,1595.000,1595.000,1598.000,1575.000
1370.376,1794.000,1759.000,1703.000,1668.000,1689.000,1681.000
1382.057,1783.000,1777.000,1738.000,1716.000,1705.000,1680.000
1393.719,1702.000,1644.000,1660.000,1638.000,1586.000,1599.000
1405.369,1683.000,1649.000,1588.000,1642.000,1563.000,1607.000
1417.001,1670.000,1599.000,1640.000,1588.000,1596.000,1539.000
1428.619,1699.000,1675.000,1577.000,1594.000,1577.000,1570.000
1440.220,1666.000,1652.000,1630.000,1623.000,1574.000,1588.000
1451.807,1669.000,1647.000,1627.000,1590.000,1614.000,1560.000
1463.377,1704.000,1648.000,1597.000,1627.000,1579.000,1572.000
1474.934,1717.000,1687.000,1621.000,1632.000,1616.000,1607.000
1486.473,1740.000,1664.000,1666.000,1631.000,1603.000,1601.000
1497.997,1753.000,1725.000,1684.000,1613.000,1637.000,1578.000
1509.507,1751.000,1680.000,1631.000,1662.000,1643.000,1645.000
1521.001,1780.000,1759.000,1692.000,1654.000,1655.000,1632.000
1532.480,1753.000,1731.000,1700.000,1691.000,1671.000,1682.000
1543.943,1826.000,1750.000,1713.000,1743.000,1682.000,1680.000
1555.392,1848.000,1822.000,1747.000,1740.000,1702.000,1669.000
1566.824,1845.000,1798.000,1781.000,1780.000,1773.000,1738.000
1578.243,1880.000,1783.000,1806.000,1775.000,1800.000,1749.000
1589.645,1938.000,1898.000,1868.000,1860.000,1830.000,1787.000
1601.034,2042.000,1968.000,1925.000,1897.000,1911.000,1861.000
1612.405,2033.000,2030.000,1968.000,1918.000,1942.000,1935.000
1623.763,2001.000,1981.000,1939.000,1919.000,1910.000,1868.000
1635.106,1939.000,1926.000,1890.000,1862.000,1859.000,1834.000
1646.432,1898.000,1814.000,1873.000,1779.000,1771.000,1774.000
1657.747,1831.000,1760.000,1752.000,1746.000,1760.000,1698.000
1669.044,1839.000,1723.000,1723.000,1706.000,1675.000,1688.000
1680.328,1759.000,1742.000,1731.000,1676.000,1667.000,1655.000
1691.594,1757.000,1703.000,1720.000,1670.000,1660.000,1613.000
1702.848,1788.000,1705.000,1680.000,1635.000,1658.000,1579.000
1714.086,1716.000,1704.000,1644.000,1648.000,1638.000,1599.000
1725.311,1731.000,1680.000,1644.000,1653.000,1605.000,1598.000
1736.519,1723.000,1675.000,1667.000,1625.000,1628.000,1570.000
1747.712,1706.000,1667.000,1651.000,1669.000,1638.000,1582.000
1758.893,1736.000,1666.000,1618.000,1618.000,1593.000,1592.000
1770.057,1736.000,1679.000,1660.000,1650.000,1594.000,1566.000
1781.209,1746.000,1672.000,1639.000,1622.000,1623.000,1606.000
1792.343,1704.000,1690.000,1677.000,1647.000,1637.000,1601.000
1803.465,1739.000,1689.000,1664.000,1629.000,1601.000,1627.000
1814.571,1739.000,1684.000,1688.000,1663.000,1621.000,1613.000
1816.157,1736.000,1685.000,1628.000,1638.000,1633.000,1612.000