File: Raman/Silica/2025_09_12_12pct_Hydrated_SiO2_Glass_on_DAC_Culet_50X_532nm_74mW_Andor750_600gv_1030wn_6accum_30s_DePol_Loc2.csv
23.130,2783.000,2754.000,2782.000,2767.000,2747.000,2845.000
34.751,2465.000,2452.000,2439.000,2489.000,2471.000,2437.000
46.355,2523.000,2534.000,2495.000,2511.000,2525.000,2483.000
57.946,2378.000,2371.000,2356.000,2402.000,2382.000,2379.000
69.523,2301.000,2362.000,2376.000,2387.000,2350.000,2363.000
81.084,2104.000,2001.000,2066.000,2040.000,2069.000,2064.000
92.632,1934.000,1973.000,1978.000,1961.000,1974.000,1922.000
104.167,1755.000,1745.000,1751.000,1727.000,1773.000,1712.000
115.685,1795.000,1787.000,1763.000,1745.000,1738.000,1734.000
127.190,1532.000,1520.000,1513.000,1505.000,1550.000,1504.000
138.683,1486.000,1492.000,1496.000,1481.000,1464.000,1489.000
150.158,1350.000,1362.000,1366.000,1333.000,1372.000,1360.000
161.621,1330.000,1383.000,1371.000,1329.000,1290.000,1352.000
173.071,1278.000,1253.000,1274.000,1263.000,1260.000,1240.000
184.504,1221.000,1221.000,1233.000,1234.000,1242.000,1226.000
195.925,1172.000,1202.000,1192.000,1213.000,1204.000,1179.000
207.333,1169.000,1164.000,1190.000,1158.000,1159.000,1159.000
218.724,1169.000,1138.000,1128.000,1101.000,1123.000,1126.000
230.104,1133.000,1130.000,1112.000,1120.000,1110.000,1121.000
241.469,1102.000,1094.000,1092.000,1105.000,1101.000,1083.000
252.819,1081.000,1070.000,1096.000,1085.000,1082.000,1070.000
264.156,1067.000,1068.000,1054.000,1063.000,1077.000,1085.000
275.480,1051.000,1057.000,1059.000,1034.000,1054.000,1051.000
286.790,1071.000,1065.000,1032.000,1050.000,1030.000,1030.000
298.084,1033.000,1030.000,1027.000,1041.000,1019.000,1026.000
309.367,1040.000,1056.000,1051.000,1051.000,1046.000,1032.000
320.635,1031.000,1034.000,1037.000,1019.000,1019.000,1016.000
331.888,1023.000,1029.000,1009.000,996.000,1035.000,1015.000
343.130,1028.000,1016.000,1008.000,1029.000,1014.000,1024.000
354.357,1026.000,1022.000,1013.000,1011.000,1030.000,998.000
365.569,1028.000,1027.000,1027.000,1025.000,1022.000,1006.000
376.770,1047.000,1027.000,1020.000,1025.000,1026.000,1011.000
387.956,1019.000,1048.000,1021.000,1043.000,1000.000,1013.000
399.127,1034.000,1020.000,1034.000,998.000,1011.000,1020.000
410.287,1004.000,1008.000,993.000,1006.000,1004.000,992.000
421.432,1034.000,1025.000,1012.000,1026.000,1017.000,1000.000
432.563,1012.000,1030.000,1017.000,1016.000,1013.000,1014.000
443.683,1020.000,1024.000,997.000,1021.000,994.000,1007.000
454.788,1025.000,1026.000,1029.000,1023.000,1009.000,1016.000
465.879,1041.000,1022.000,983.000,1014.000,1024.000,1019.000
476.957,1029.000,1003.000,1027.000,997.000,997.000,1008.000
488.022,987.000,999.000,1000.000,1002.000,979.000,969.000
499.072,952.000,954.000,966.000,954.000,948.000,940.000
510.111,900.000,901.000,893.000,894.000,901.000,904.000
521.136,860.000,860.000,845.000,863.000,854.000,861.000
532.147,842.000,858.000,857.000,847.000,844.000,833.000
543.145,840.000,839.000,827.000,826.000,853.000,836.000
554.131,833.000,824.000,828.000,824.000,822.000,829.000
565.100,816.000,815.000,807.000,824.000,824.000,804.000
576.060,800.000,816.000,803.000,808.000,786.000,803.000
587.006,819.000,825.000,824.000,791.000,807.000,808.000
597.937,795.000,795.000,795.000,807.000,804.000,799.000
608.856,790.000,811.000,786.000,802.000,793.000,793.000
619.763,795.000,775.000,789.000,796.000,781.000,765.000
630.655,802.000,800.000,790.000,789.000,790.000,787.000
641.535,788.000,808.000,785.000,802.000,788.000,783.000
652.403,786.000,798.000,774.000,780.000,799.000,777.000
663.256,799.000,799.000,799.000,795.000,774.000,779.000
674.097,791.000,794.000,791.000,790.000,793.000,789.000
684.926,791.000,802.000,789.000,799.000,782.000,795.000
695.739,806.000,794.000,783.000,791.000,799.000,788.000
706.542,795.000,890.000,812.000,787.000,782.000,800.000
717.332,802.000,791.000,810.000,789.000,809.000,804.000
728.106,810.000,797.000,804.000,789.000,789.000,799.000
738.871,824.000,802.000,791.000,806.000,806.000,795.000
749.622,816.000,830.000,790.000,809.000,793.000,804.000
760.360,825.000,825.000,829.000,830.000,807.000,828.000
771.085,861.000,856.000,853.000,856.000,872.000,850.000
781.797,895.000,884.000,907.000,893.000,903.000,910.000
792.498,913.000,930.000,900.000,915.000,913.000,930.000
803.184,891.000,892.000,886.000,907.000,906.000,882.000
813.859,889.000,879.000,878.000,867.000,880.000,878.000
824.520,863.000,873.000,856.000,870.000,854.000,853.000
835.169,863.000,844.000,845.000,839.000,840.000,825.000
845.806,812.000,817.000,826.000,812.000,809.000,797.000
856.430,801.000,807.000,814.000,800.000,799.000,799.000
867.040,808.000,798.000,796.000,796.000,794.000,805.000
877.640,807.000,805.000,809.000,808.000,795.000,786.000
888.226,801.000,798.000,804.000,792.000,811.000,788.000
898.798,819.000,799.000,796.000,806.000,798.000,792.000
909.360,813.000,796.000,800.000,818.000,797.000,797.000
919.909,832.000,813.000,802.000,815.000,811.000,812.000
930.444,824.000,831.000,831.000,826.000,822.000,816.000
940.968,825.000,2341.000,851.000,844.000,827.000,836.000
951.481,858.000,835.000,846.000,857.000,847.000,837.000
961.979,878.000,876.000,864.000,862.000,863.000,845.000
972.466,875.000,870.000,878.000,860.000,860.000,858.000
982.941,856.000,875.000,836.000,859.000,865.000,855.000
993.402,851.000,854.000,845.000,823.000,840.000,827.000
1003.852,843.000,835.000,819.000,840.000,810.000,827.000
1014.290,832.000,832.000,835.000,834.000,819.000,810.000
1024.714,829.000,825.000,827.000,826.000,827.000,826.000
1035.128,843.000,836.000,829.000,835.000,832.000,815.000
1045.530,875.000,851.000,843.000,833.000,856.000,839.000
1055.917,876.000,860.000,861.000,859.000,842.000,840.000
1066.294,839.000,845.000,853.000,869.000,838.000,849.000
1076.660,831.000,840.000,831.000,825.000,845.000,827.000
1087.011,822.000,828.000,823.000,817.000,810.000,821.000
1097.351,812.000,798.000,808.000,803.000,809.000,792.000
1107.681,812.000,807.000,809.000,809.000,791.000,792.000
1117.995,827.000,809.000,797.000,803.000,799.000,809.000
1128.300,822.000,818.000,820.000,786.000,798.000,812.000
1138.593,816.000,813.000,825.000,824.000,817.000,808.000
1148.872,838.000,813.000,819.000,823.000,811.000,800.000
1159.141,823.000,840.000,825.000,825.000,839.000,811.000
1169.397,837.000,844.000,822.000,813.000,811.000,824.000
1179.641,829.000,841.000,808.000,845.000,820.000,825.000
1189.874,845.000,829.000,835.000,815.000,836.000,833.000
1200.095,846.000,817.000,826.000,822.000,813.000,823.000
1210.302,825.000,831.000,816.000,821.000,819.000,806.000
1220.499,824.000,831.000,823.000,808.000,803.000,808.000
1230.685,832.000,830.000,821.000,817.000,823.000,792.000
1240.858,835.000,819.000,811.000,806.000,808.000,813.000
1251.020,828.000,814.000,814.000,815.000,799.000,789.000
1261.170,818.000,817.000,820.000,801.000,807.000,807.000
1271.308,824.000,833.000,801.000,812.000,812.000,805.000
1281.433,818.000,811.000,804.000,807.000,793.000,798.000
1291.548,820.000,819.000,804.000,796.000,800.000,811.000
1301.652,837.000,834.000,845.000,846.000,828.000,842.000
1311.742,901.000,899.000,915.000,916.000,895.000,912.000
1321.822,1732.000,1728.000,1740.000,1727.000,1753.000,1742.000
1331.891,4552.000,4585.000,4514.000,4618.000,4518.000,4624.000
1341.946,928.000,919.000,956.000,922.000,950.000,930.000
1351.991,850.000,836.000,834.000,844.000,836.000,819.000
1362.025,807.000,824.000,830.000,814.000,808.000,818.000
1372.045,810.000,819.000,799.000,807.000,802.000,791.000
1382.057,802.000,821.000,809.000,796.000,797.000,791.000
1392.056,804.000,811.000,789.000,810.000,793.000,791.000
1402.042,811.000,805.000,803.000,791.000,788.000,808.000
1412.017,810.000,805.000,805.000,795.000,820.000,788.000
1421.982,809.000,801.000,804.000,795.000,796.000,790.000
1431.935,835.000,803.000,798.000,791.000,806.000,806.000
1441.877,813.000,817.000,815.000,796.000,796.000,793.000
1451.807,819.000,814.000,801.000,800.000,791.000,782.000
1461.725,803.000,802.000,803.000,788.000,792.000,790.000
1471.632,799.000,806.000,805.000,780.000,796.000,788.000
1481.530,820.000,814.000,789.000,809.000,793.000,788.000
1491.414,825.000,803.000,802.000,808.000,793.000,799.000
1501.287,823.000,807.000,805.000,811.000,805.000,799.000
1511.151,802.000,808.000,805.000,796.000,794.000,801.000
1521.001,806.000,816.000,808.000,814.000,811.000,802.000
1530.840,820.000,802.000,787.000,794.000,798.000,811.000
1540.670,806.000,803.000,814.000,802.000,807.000,783.000
1550.486,822.000,815.000,804.000,815.000,810.000,805.000
1560.293,815.000,821.000,801.000,819.000,808.000,803.000
1570.088,822.000,810.000,823.000,816.000,806.000,807.000
1579.872,836.000,808.000,801.000,806.000,797.000,794.000
1589.645,845.000,836.000,813.000,803.000,816.000,805.000
1599.408,837.000,834.000,835.000,804.000,831.000,831.000
1609.158,829.000,823.000,846.000,827.000,819.000,802.000
1618.898,839.000,835.000,824.000,819.000,819.000,813.000
1628.627,832.000,824.000,826.000,805.000,816.000,803.000
1638.345,818.000,815.000,819.000,824.000,807.000,819.000
1648.050,832.000,814.000,822.000,820.000,806.000,808.000
1657.747,817.000,807.000,804.000,813.000,831.000,808.000
1667.431,816.000,813.000,811.000,818.000,817.000,803.000
1677.104,824.000,813.000,820.000,807.000,806.000,807.000
1686.768,821.000,811.000,805.000,822.000,808.000,794.000
1696.420,801.000,832.000,819.000,803.000,808.000,830.000
1706.060,809.000,809.000,823.000,808.000,801.000,792.000
1715.691,819.000,807.000,815.000,830.000,806.000,787.000
1725.311,826.000,816.000,772.000,802.000,798.000,799.000
1734.918,820.000,807.000,805.000,821.000,810.000,808.000
1744.517,805.000,818.000,815.000,782.000,813.000,813.000
1754.104,813.000,804.000,815.000,801.000,809.000,816.000
1763.679,843.000,820.000,810.000,815.000,810.000,800.000
1773.245,836.000,816.000,816.000,819.000,804.000,806.000
1782.800,830.000,814.000,814.000,808.000,821.000,822.000
1792.343,819.000,821.000,821.000,815.000,810.000,815.000
1801.877,823.000,827.000,826.000,822.000,1159.000,829.000
1811.400,854.000,819.000,831.000,816.000,827.000,812.000
1816.157,834.000,839.000,832.000,836.000,829.000,839.000