File: Raman/Silica/2025_08_22_BB1392_SiO2_8wtPctH2O_Glass_50X_532nm_6mW_Kymera328_600gv_1000wn_3accum_30s_Unpol_Pos2.csv
-1248.401,3034.000,3038.000,3032.000
-1228.692,3034.000,3034.000,3029.000
-1209.018,3039.000,3033.000,3035.000
-1189.383,3035.000,3038.000,3029.000
-1169.788,3035.000,3035.000,3042.000
-1150.233,3039.000,3037.000,3040.000
-1130.715,3042.000,3039.000,3041.000
-1111.234,3044.000,3032.000,3040.000
-1091.790,3038.000,3038.000,3034.000
-1072.386,3035.000,3039.000,3044.000
-1053.019,3032.000,3041.000,3039.000
-1033.689,3043.000,3035.000,3038.000
-1014.397,3035.000,3035.000,3026.000
-995.144,3043.000,3036.000,3042.000
-975.929,3039.000,3046.000,3040.000
-956.748,3045.000,3054.000,3044.000
-937.607,3048.000,3040.000,3041.000
-918.501,3039.000,3042.000,3053.000
-899.432,3041.000,3044.000,3047.000
-880.403,3043.000,3049.000,3048.000
-861.409,3041.000,3040.000,3042.000
-842.449,3043.000,3045.000,3046.000
-823.527,3050.000,3050.000,3059.000
-804.645,3052.000,3054.000,3054.000
-785.795,3047.000,3057.000,3050.000
-766.984,3050.000,3046.000,3042.000
-748.206,3052.000,3053.000,3054.000
-729.467,3046.000,3053.000,3054.000
-710.763,3052.000,3048.000,3050.000
-692.092,3048.000,3055.000,3052.000
-673.460,3061.000,3060.000,3062.000
-654.862,3063.000,3066.000,3064.000
-636.301,3059.000,3064.000,3071.000
-617.775,3074.000,3077.000,3074.000
-599.284,3084.000,3079.000,3081.000
-580.829,3085.000,3092.000,3090.000
-562.408,3111.000,3106.000,3099.000
-544.022,3116.000,3118.000,3112.000
-525.672,3156.000,3171.000,3172.000
-507.354,3237.000,3249.000,3245.000
-489.073,3332.000,3331.000,3339.000
-470.826,3366.000,3383.000,3360.000
-452.614,3383.000,3362.000,3366.000
-434.436,3379.000,3383.000,3380.000
-416.292,3391.000,3409.000,3400.000
-398.183,3393.000,3395.000,3387.000
-380.108,3417.000,3413.000,3391.000
-362.067,3425.000,3441.000,3432.000
-344.058,3442.000,3415.000,3443.000
-326.084,3481.000,3470.000,3444.000
-308.145,3468.000,3484.000,3487.000
-290.239,3510.000,3509.000,3515.000
-272.366,3530.000,3533.000,3560.000
-254.527,3567.000,3567.000,3588.000
-236.722,3625.000,3640.000,3598.000
-218.949,3694.000,3670.000,3678.000
-201.209,3788.000,3771.000,3792.000
-183.504,3843.000,3842.000,3882.000
-165.828,4007.000,4048.000,4005.000
-148.188,4172.000,4185.000,4172.000
-130.580,4436.000,4408.000,4407.000
-113.005,4714.000,4746.000,4643.000
-95.462,5014.000,5045.000,5037.000
-77.953,5412.000,5370.000,5360.000
-60.476,5723.000,5626.000,5742.000
-43.031,5793.000,5856.000,5837.000
-25.618,6029.000,5988.000,5967.000
-8.237,9052.000,8977.000,8953.000
9.114,11749.000,11725.000,11727.000
26.430,11699.000,11766.000,11622.000
43.715,10056.000,9873.000,9902.000
60.967,6942.000,6964.000,6977.000
78.189,6237.000,6249.000,6263.000
95.379,5958.000,5999.000,5882.000
112.536,5688.000,5696.000,5657.000
129.663,5403.000,5397.000,5346.000
146.757,5237.000,5239.000,5212.000
163.824,5070.000,5070.000,5079.000
180.857,4887.000,4901.000,4912.000
197.858,4881.000,4827.000,4887.000
214.829,4805.000,4825.000,4843.000
231.768,4820.000,4791.000,4834.000
248.677,4816.000,4833.000,4785.000
265.555,4822.000,4831.000,4847.000
282.402,4889.000,4884.000,4848.000
299.218,4960.000,4946.000,4948.000
316.007,4939.000,4947.000,5048.000
332.762,5087.000,5095.000,5080.000
349.488,5154.000,5251.000,5154.000
366.183,5299.000,5323.000,5318.000
382.848,5398.000,5401.000,5375.000
399.482,5471.000,5493.000,5482.000
416.088,5617.000,5658.000,5619.000
432.662,5818.000,5784.000,5835.000
449.207,6021.000,6018.000,6056.000
465.723,6221.000,6296.000,6252.000
482.208,6140.000,6183.000,6222.000
498.666,5538.000,5526.000,5481.000
515.092,4747.000,4728.000,4696.000
531.489,4355.000,4264.000,4305.000
547.856,4022.000,4070.000,4055.000
564.194,3891.000,3884.000,3878.000
580.503,3760.000,3790.000,3792.000
596.783,3705.000,3698.000,3690.000
613.033,3604.000,3613.000,3621.000
629.255,3565.000,3548.000,3565.000
645.449,3525.000,3527.000,3536.000
661.613,3494.000,3493.000,3507.000
677.749,3475.000,3452.000,3466.000
693.855,3451.000,3466.000,3470.000
709.933,3446.000,3436.000,3444.000
725.983,3449.000,3443.000,3439.000
742.003,3443.000,3439.000,3466.000
757.996,3494.000,3510.000,3488.000
773.960,3624.000,3627.000,3634.000
789.897,3692.000,3701.000,3724.000
805.805,3695.000,3695.000,3702.000
821.686,3591.000,3603.000,3613.000
837.537,3481.000,3487.000,3476.000
853.361,3399.000,3392.000,3406.000
869.156,3376.000,3391.000,3378.000
884.925,3408.000,3411.000,3398.000
900.665,3460.000,3448.000,3474.000
916.378,3532.000,3538.000,3520.000
932.063,3629.000,3589.000,3579.000
947.723,3785.000,3757.000,3771.000
963.353,3895.000,3879.000,3873.000
978.956,3809.000,3772.000,3827.000
994.532,3599.000,3597.000,3608.000
1010.081,3499.000,3476.000,3476.000
1025.601,3439.000,3429.000,3422.000
1041.096,3419.000,3427.000,3415.000
1056.563,3405.000,3418.000,3400.000
1072.003,3364.000,3357.000,3383.000
1087.416,3314.000,3310.000,3307.000
1102.805,3279.000,3267.000,3275.000
1118.165,3271.000,3261.000,3281.000
1133.498,3275.000,3278.000,3274.000
1148.806,3303.000,3301.000,3308.000
1164.085,3306.000,3292.000,3286.000
1179.339,3281.000,3295.000,3294.000
1194.566,3309.000,3308.000,3298.000
1209.768,3295.000,3271.000,3279.000
1224.942,3265.000,3263.000,3260.000
1240.093,3231.000,3235.000,3204.000
1255.216,3187.000,3205.000,3210.000
1270.313,3213.000,3198.000,3200.000
1285.383,3179.000,3188.000,3176.000
1300.427,3180.000,3174.000,3168.000
1315.447,3166.000,3182.000,3174.000
1330.440,3179.000,3170.000,3184.000
1345.408,3174.000,3173.000,3155.000
1360.350,3186.000,3193.000,3186.000
1375.267,3210.000,3210.000,3224.000
1390.158,3179.000,3188.000,3191.000
1405.023,3169.000,3172.000,3180.000
1419.864,3178.000,3194.000,3188.000
1434.679,3169.000,3165.000,3186.000
1449.468,3177.000,3168.000,3170.000
1464.232,3190.000,3160.000,3187.000
1478.971,3189.000,3190.000,3195.000
1493.685,3188.000,3175.000,3196.000
1508.374,3187.000,3186.000,3187.000
1523.038,3185.000,3195.000,3195.000
1537.679,3191.000,3208.000,3187.000
1552.294,3198.000,3212.000,3209.000
1566.883,3206.000,3209.000,3221.000
1581.449,3224.000,3230.000,3212.000
1595.990,3243.000,3249.000,3222.000
1610.505,3236.000,3240.000,3227.000
1624.997,3231.000,3232.000,3239.000
1639.464,3215.000,3216.000,3219.000
1653.907,3212.000,3204.000,3208.000
1668.328,3199.000,3193.000,3198.000
1682.721,3186.000,3185.000,3183.000
1697.092,3199.000,3190.000,3185.000
1711.437,3178.000,3174.000,3189.000
1725.759,3184.000,3187.000,3179.000
1740.057,3166.000,3180.000,3189.000
1754.331,3174.000,3173.000,3190.000
1768.581,3185.000,3162.000,3178.000
1782.807,3154.000,3186.000,3185.000
1797.012,3173.000,3183.000,3171.000
1811.190,3190.000,3188.000,3172.000
1825.346,3158.000,3180.000,3187.000
1839.478,3172.000,3279.000,3169.000
1853.585,3188.000,3189.000,3187.000
1867.670,3166.000,3181.000,3193.000
1881.731,3170.000,3172.000,3179.000
1895.769,3191.000,3177.000,3183.000
1909.784,3190.000,3191.000,3183.000
1923.777,3186.000,3193.000,3183.000
1937.744,3182.000,3191.000,3197.000
1951.691,3187.000,3203.000,3182.000
1965.613,3196.000,3183.000,3192.000
1979.512,3203.000,3193.000,3195.000
1993.388,3181.000,3187.000,3179.000
2007.242,3201.000,3183.000,3193.000
2021.072,3207.000,3180.000,3191.000
2034.880,3200.000,3190.000,3189.000
2048.665,3187.000,3196.000,3186.000
2062.427,3203.000,3187.000,3188.000
2076.168,3181.000,3176.000,3202.000
2089.885,3184.000,3201.000,3199.000
2103.580,3198.000,3209.000,3196.000
2117.252,3205.000,3186.000,3786.000
2130.902,3216.000,3195.000,3203.000
2144.529,3204.000,3196.000,3196.000
2158.135,3204.000,3194.000,3195.000
2171.718,3219.000,3201.000,3217.000
2185.279,3200.000,3196.000,3207.000
2198.820,3187.000,3209.000,3208.000
2212.337,3197.000,3210.000,3195.000
2225.831,3200.000,3219.000,3215.000
2239.304,3218.000,3211.000,3206.000
2252.755,3195.000,3203.000,3210.000
2266.184,3215.000,3204.000,3206.000
2279.591,3197.000,3203.000,3207.000
2292.977,3201.000,3228.000,3188.000
2306.341,3211.000,3223.000,3193.000
2319.684,3204.000,3207.000,3203.000
2333.006,3228.000,3225.000,3222.000
2346.305,3214.000,3228.000,3219.000
2359.582,3197.000,3207.000,3210.000
2372.838,3202.000,3213.000,3209.000
2386.074,3219.000,3217.000,3209.000
2399.287,3197.000,3205.000,3220.000
2412.480,3220.000,3209.000,3207.000
2425.651,3227.000,3216.000,3214.000
2438.800,3218.000,3234.000,3232.000
2451.930,3212.000,3228.000,3224.000
2465.039,3234.000,3217.000,3212.000
2478.125,3208.000,3209.000,3221.000
2491.192,3230.000,3231.000,3226.000
2504.236,3220.000,3233.000,3225.000
2517.261,3225.000,3221.000,3226.000
2530.264,3235.000,3235.000,3236.000
2543.247,3229.000,3241.000,3220.000
2556.209,3226.000,3227.000,3229.000
2569.149,3234.000,3223.000,3248.000
2582.072,3223.000,3240.000,3250.000
2594.972,3255.000,3229.000,3233.000
2607.852,3240.000,3244.000,3248.000
2620.711,3237.000,3249.000,3253.000
2633.549,3250.000,3235.000,3232.000
2646.368,3255.000,3247.000,3237.000
2659.165,3250.000,3254.000,3253.000
2671.943,3261.000,3252.000,3266.000
2684.701,3281.000,3265.000,3244.000
2697.439,3254.000,3257.000,3247.000
2710.156,3284.000,3252.000,3274.000
2722.854,3276.000,3277.000,3268.000
2735.530,3289.000,3280.000,3293.000
2748.188,3294.000,3280.000,3277.000
2760.825,3318.000,3306.000,3298.000
2773.442,3338.000,3306.000,3321.000
2782.893,3313.000,3309.000,3356.000