File: Raman/Silica/2025_08_22_Nat_Qtz_50X_532nm_6mW_Andor750_600gv_4000wn_3accum_30s_UnPol.csv
3314.254,750.000,750.000,744.000
3319.475,754.000,754.000,754.000
3324.692,743.000,743.000,742.000
3329.906,754.000,746.000,754.000
3335.116,750.000,748.000,750.000
3340.323,754.000,758.000,756.000
3345.526,755.000,757.000,747.000
3350.726,747.000,749.000,749.000
3355.921,755.000,749.000,754.000
3361.115,753.000,754.000,756.000
3366.305,759.000,734.000,767.000
3371.490,746.000,747.000,756.000
3376.673,763.000,758.000,759.000
3381.851,759.000,770.000,755.000
3387.028,749.000,756.000,754.000
3392.198,752.000,761.000,766.000
3397.368,767.000,751.000,762.000
3402.532,762.000,757.000,777.000
3407.694,753.000,761.000,760.000
3412.852,748.000,757.000,754.000
3418.006,759.000,764.000,755.000
3423.158,758.000,767.000,763.000
3428.305,762.000,765.000,764.000
3433.449,759.000,758.000,767.000
3438.590,763.000,772.000,757.000
3443.728,748.000,767.000,771.000
3448.860,766.000,769.000,768.000
3453.992,763.000,768.000,762.000
3459.120,769.000,775.000,756.000
3464.242,770.000,760.000,760.000
3469.364,769.000,767.000,762.000
3474.480,757.000,766.000,754.000
3479.593,757.000,767.000,755.000
3484.702,778.000,769.000,758.000
3489.810,762.000,762.000,767.000
3494.912,773.000,757.000,764.000
3500.012,772.000,774.000,774.000
3505.110,773.000,765.000,770.000
3510.202,761.000,769.000,773.000
3515.292,784.000,776.000,765.000
3520.378,767.000,767.000,763.000
3525.461,785.000,775.000,775.000
3530.540,776.000,779.000,774.000
3535.617,781.000,779.000,782.000
3540.688,771.000,765.000,775.000
3545.758,791.000,788.000,806.000
3550.825,791.000,784.000,795.000
3555.887,802.000,780.000,790.000
3560.946,802.000,792.000,794.000
3566.001,787.000,800.000,819.000
3571.055,796.000,805.000,812.000
3576.102,827.000,827.000,811.000
3581.149,837.000,830.000,827.000
3586.191,845.000,848.000,851.000
3591.231,856.000,848.000,849.000
3596.267,879.000,868.000,872.000
3601.298,883.000,905.000,863.000
3606.329,896.000,910.000,911.000
3611.353,921.000,909.000,899.000
3616.376,932.000,884.000,917.000
3621.395,941.000,952.000,927.000
3626.411,945.000,966.000,949.000
3631.423,1580.000,940.000,950.000
3636.434,981.000,970.000,956.000
3641.439,948.000,979.000,979.000
3646.442,948.000,950.000,961.000
3651.441,963.000,959.000,955.000
3656.436,942.000,962.000,935.000
3661.430,941.000,955.000,936.000
3666.419,937.000,931.000,973.000
3671.405,932.000,926.000,938.000
3676.387,923.000,898.000,899.000
3681.367,906.000,915.000,920.000
3686.344,926.000,926.000,920.000
3691.316,894.000,922.000,906.000
3696.287,917.000,927.000,915.000
3701.252,902.000,909.000,914.000
3706.216,911.000,925.000,915.000
3711.176,923.000,900.000,915.000
3716.133,915.000,928.000,946.000
3721.086,933.000,918.000,931.000
3726.036,954.000,949.000,923.000
3730.984,932.000,930.000,949.000
3735.927,963.000,964.000,930.000
3740.867,967.000,965.000,943.000
3745.803,961.000,959.000,959.000
3750.738,971.000,1002.000,968.000
3755.668,975.000,976.000,992.000
3760.596,993.000,990.000,1025.000
3765.522,992.000,989.000,988.000
3770.442,1020.000,1013.000,1004.000
3775.360,1002.000,1010.000,1019.000
3780.274,999.000,1024.000,1016.000
3785.186,1054.000,1045.000,1039.000
3790.094,1050.000,1022.000,1025.000
3794.998,1083.000,1066.000,1045.000
3799.899,1076.000,1079.000,1072.000
3804.799,1065.000,1086.000,1089.000
3809.694,1108.000,1093.000,1098.000
3814.586,1098.000,1135.000,1126.000
3819.476,1153.000,1135.000,1118.000
3824.360,1176.000,1156.000,1135.000
3829.244,1166.000,1169.000,1191.000
3834.123,1189.000,1165.000,1188.000
3839.000,1233.000,1209.000,1213.000
3843.872,1230.000,1239.000,1231.000
3848.742,1235.000,1256.000,1236.000
3853.610,1243.000,1262.000,1235.000
3858.472,1232.000,1255.000,1250.000
3863.333,1269.000,1255.000,1241.000
3868.190,1225.000,1294.000,1253.000
3873.044,1281.000,1240.000,1261.000
3877.894,1301.000,1286.000,1287.000
3882.743,1291.000,1320.000,1301.000
3887.587,1271.000,1283.000,1280.000
3892.428,1244.000,1262.000,1271.000
3897.268,1267.000,1270.000,1261.000
3902.101,1237.000,1248.000,1226.000
3906.934,1209.000,1228.000,1241.000
3911.763,1242.000,1252.000,1229.000
3916.589,1217.000,1238.000,1181.000
3921.411,1189.000,1213.000,1209.000
3926.231,1217.000,1153.000,1230.000
3931.047,1172.000,1174.000,1203.000
3935.861,1186.000,1197.000,1182.000
3940.671,1198.000,1164.000,1191.000
3945.478,1210.000,1169.000,1180.000
3950.282,1198.000,1191.000,1153.000
3955.082,1196.000,1197.000,1186.000
3959.881,1202.000,1197.000,1169.000
3964.673,1210.000,1200.000,1180.000
3969.466,1194.000,1200.000,1186.000
3974.253,1193.000,1230.000,1176.000
3979.039,1232.000,1232.000,1219.000
3983.823,1210.000,1237.000,1225.000
3988.600,1239.000,1258.000,1235.000
3993.378,1228.000,1257.000,1214.000
3998.150,1222.000,1252.000,1234.000
4002.921,1215.000,1219.000,1207.000
4007.687,1227.000,1220.000,1250.000
4012.450,1224.000,1224.000,1234.000
4017.211,1227.000,1180.000,1209.000
4021.968,1207.000,1176.000,1192.000
4026.724,1177.000,1185.000,1195.000
4031.475,1178.000,1153.000,1171.000
4036.224,1171.000,1162.000,1158.000
4040.969,1144.000,1168.000,1162.000
4045.711,1124.000,1128.000,1127.000
4050.449,1133.000,1139.000,1124.000
4055.186,1127.000,1120.000,1142.000
4059.920,1141.000,1128.000,1131.000
4064.650,1089.000,1145.000,1140.000
4069.377,1134.000,1132.000,1115.000
4074.102,1138.000,1135.000,1131.000
4078.823,1132.000,1109.000,1125.000
4083.541,1116.000,1115.000,1127.000
4088.255,1138.000,1141.000,1142.000
4092.967,1126.000,1110.000,1126.000
4097.677,1112.000,1126.000,1125.000
4102.382,1128.000,1115.000,1124.000
4107.086,1116.000,1107.000,1116.000
4111.786,1122.000,1090.000,1119.000
4116.483,1121.000,1118.000,1120.000
4121.176,1125.000,1139.000,1121.000
4125.867,1099.000,1101.000,1113.000
4130.556,1123.000,1131.000,1119.000
4135.239,1106.000,1135.000,1104.000
4139.923,1121.000,1127.000,1139.000
4144.600,1122.000,1104.000,1082.000
4149.277,1080.000,1098.000,1102.000
4153.951,1112.000,1084.000,1100.000
4158.620,1095.000,1107.000,1079.000
4163.287,1094.000,1095.000,1087.000
4167.951,1082.000,1075.000,1084.000
4172.612,1093.000,1097.000,1073.000
4177.270,1083.000,1071.000,1062.000
4181.925,1045.000,1059.000,1065.000
4186.577,1056.000,1068.000,1028.000
4191.227,1050.000,1038.000,1035.000
4195.874,1059.000,1025.000,1027.000
4200.516,1021.000,1041.000,1059.000
4205.157,1031.000,1023.000,1031.000
4209.794,1034.000,1029.000,1031.000
4214.429,1014.000,1021.000,995.000
4219.060,1020.000,1028.000,1025.000
4223.689,1016.000,1029.000,1017.000
4228.313,1021.000,1027.000,1032.000
4232.937,1024.000,1033.000,998.000
4237.558,1023.000,1011.000,1018.000
4242.174,1006.000,1021.000,1030.000
4246.789,1026.000,1025.000,1014.000
4251.399,1049.000,1029.000,1016.000
4256.007,1043.000,1045.000,1025.000
4260.612,1042.000,1052.000,1042.000
4265.215,1059.000,1054.000,1038.000
4269.813,1074.000,1084.000,1081.000
4274.410,1066.000,1085.000,1088.000
4279.004,1112.000,1080.000,1087.000
4283.594,1094.000,1117.000,1084.000
4288.182,1137.000,1143.000,1126.000
4292.767,1187.000,1158.000,1139.000
4297.349,1168.000,1174.000,1190.000
4301.928,1284.000,1259.000,1247.000
4306.504,1331.000,1322.000,1338.000
4311.077,1419.000,1396.000,1402.000
4315.647,1471.000,1463.000,1470.000
4320.215,1587.000,1574.000,1577.000
4324.779,1743.000,1764.000,1761.000
4329.341,2015.000,2048.000,2013.000
4333.900,2456.000,2406.000,2441.000
4338.456,3019.000,3042.000,3035.000
4343.008,4031.000,3989.000,4060.000
4347.559,5621.000,5714.000,5627.000
4352.106,8295.000,8228.000,8171.000
4356.651,12303.000,12192.000,12289.000
4361.193,16614.000,16700.000,16678.000
4365.731,18350.000,18289.000,18247.000
4370.268,16490.000,16404.000,16467.000
4374.800,14862.000,14857.000,14972.000
4379.331,15296.000,15215.000,15238.000
4383.857,18377.000,18292.000,18344.000
4388.382,23524.000,23491.000,23474.000
4392.904,28315.000,28332.000,28206.000
4397.423,27295.000,27023.000,27170.000
4401.940,22195.000,22134.000,22110.000
4406.452,17016.000,16830.000,16897.000
4410.963,12773.000,12668.000,12732.000
4415.470,9870.000,9867.000,9828.000
4419.975,7854.000,7802.000,7808.000
4424.477,6436.000,6452.000,6420.000
4428.976,5411.000,5362.000,5341.000
4433.472,4605.000,4578.000,4595.000
4437.966,3932.000,4031.000,4007.000
4442.457,3595.000,3586.000,3553.000
4446.944,3270.000,3260.000,3279.000
4451.429,3024.000,3046.000,3064.000
4455.911,2929.000,2909.000,2928.000
4460.391,2790.000,2800.000,2778.000
4464.867,2722.000,2686.000,2745.000
4469.341,2636.000,2648.000,2591.000
4473.811,2547.000,2543.000,2562.000
4478.280,2517.000,2498.000,2434.000
4482.746,2392.000,2379.000,2392.000
4487.208,2389.000,2327.000,2330.000
4491.669,2263.000,4701.000,2285.000
4496.126,2240.000,2254.000,2337.000
4500.580,2311.000,2331.000,2327.000
4505.032,2335.000,2329.000,2307.000
4509.481,2239.000,2277.000,2240.000
4513.926,2177.000,2134.000,2191.000
4518.369,2110.000,2082.000,2110.000
4522.810,2112.000,2043.000,2064.000
4527.248,2052.000,2050.000,2095.000
4531.684,2133.000,2143.000,2097.000
4536.114,2172.000,2170.000,2194.000
4540.545,2331.000,2258.000,2284.000
4543.865,2306.000,2343.000,2323.000