File: Raman/Silica/2025_09_12_12pct_Hydrated_SiO2_Glass_on_DAC_Culet_50X_532nm_74mW_Andor750_600gv_3400wn_6accum_30s_DePol_Loc2.csv
2654.492,769.000,759.000,769.000,758.000,772.000,767.000
2663.023,768.000,774.000,762.000,761.000,761.000,759.000
2671.545,774.000,765.000,753.000,767.000,767.000,767.000
2680.058,773.000,773.000,786.000,767.000,769.000,772.000
2688.562,842.000,765.000,773.000,753.000,760.000,768.000
2697.056,755.000,779.000,755.000,760.000,749.000,761.000
2705.543,758.000,770.000,746.000,760.000,759.000,766.000
2714.020,759.000,754.000,759.000,760.000,768.000,746.000
2722.488,764.000,744.000,759.000,764.000,767.000,752.000
2730.947,762.000,760.000,757.000,762.000,748.000,745.000
2739.399,768.000,763.000,750.000,748.000,755.000,750.000
2747.840,767.000,748.000,774.000,755.000,766.000,768.000
2756.272,758.000,766.000,749.000,749.000,766.000,759.000
2764.696,748.000,755.000,764.000,773.000,753.000,754.000
2773.111,767.000,766.000,759.000,767.000,747.000,755.000
2781.517,776.000,770.000,763.000,771.000,756.000,767.000
2789.915,767.000,764.000,762.000,764.000,752.000,749.000
2798.304,759.000,779.000,784.000,751.000,760.000,762.000
2806.682,756.000,773.000,755.000,753.000,772.000,758.000
2815.054,766.000,760.000,757.000,767.000,762.000,756.000
2823.416,755.000,772.000,772.000,762.000,767.000,767.000
2831.768,761.000,762.000,772.000,776.000,779.000,758.000
2840.113,752.000,764.000,775.000,772.000,754.000,762.000
2848.450,781.000,770.000,764.000,769.000,755.000,763.000
2856.776,773.000,770.000,775.000,755.000,763.000,767.000
2865.095,756.000,771.000,765.000,779.000,754.000,780.000
2873.406,773.000,767.000,761.000,750.000,778.000,775.000
2881.707,767.000,760.000,771.000,774.000,771.000,770.000
2889.998,786.000,802.000,776.000,784.000,771.000,763.000
2898.284,778.000,776.000,774.000,767.000,773.000,767.000
2906.558,771.000,769.000,777.000,773.000,776.000,770.000
2914.825,772.000,787.000,780.000,795.000,781.000,770.000
2923.083,784.000,794.000,787.000,790.000,795.000,792.000
2931.333,771.000,776.000,766.000,779.000,782.000,769.000
2939.573,787.000,766.000,781.000,784.000,783.000,785.000
2947.805,771.000,786.000,786.000,758.000,775.000,771.000
2956.030,774.000,795.000,788.000,771.000,781.000,783.000
2964.244,789.000,779.000,793.000,792.000,788.000,787.000
2972.452,811.000,804.000,809.000,807.000,808.000,804.000
2980.651,805.000,778.000,791.000,774.000,798.000,801.000
2988.840,794.000,797.000,793.000,799.000,795.000,785.000
2997.021,803.000,800.000,774.000,804.000,779.000,785.000
3005.195,803.000,790.000,795.000,779.000,806.000,791.000
3013.358,782.000,776.000,790.000,802.000,774.000,799.000
3021.514,790.000,791.000,803.000,783.000,805.000,802.000
3029.662,806.000,797.000,779.000,789.000,795.000,805.000
3037.801,788.000,789.000,797.000,798.000,802.000,790.000
3045.932,804.000,790.000,795.000,783.000,807.000,798.000
3054.054,801.000,808.000,792.000,796.000,782.000,801.000
3062.168,817.000,795.000,796.000,815.000,825.000,795.000
3070.273,790.000,801.000,782.000,789.000,798.000,792.000
3078.371,799.000,814.000,804.000,800.000,813.000,800.000
3086.461,803.000,802.000,804.000,811.000,809.000,816.000
3094.540,813.000,808.000,821.000,799.000,807.000,804.000
3102.613,790.000,814.000,824.000,818.000,811.000,810.000
3110.677,807.000,822.000,820.000,820.000,807.000,826.000
3118.732,826.000,830.000,820.000,810.000,819.000,819.000
3126.780,825.000,810.000,817.000,836.000,828.000,825.000
3134.820,817.000,822.000,840.000,826.000,821.000,809.000
3142.850,822.000,831.000,818.000,818.000,835.000,828.000
3150.873,835.000,829.000,847.000,851.000,843.000,827.000
3158.887,843.000,839.000,826.000,832.000,841.000,835.000
3166.894,858.000,835.000,847.000,819.000,834.000,846.000
3174.892,829.000,840.000,857.000,828.000,850.000,846.000
3182.882,861.000,859.000,859.000,845.000,872.000,850.000
3190.864,857.000,868.000,861.000,869.000,856.000,863.000
3198.836,867.000,869.000,859.000,860.000,867.000,851.000
3206.803,867.000,854.000,877.000,872.000,868.000,890.000
3214.761,875.000,863.000,856.000,868.000,868.000,865.000
3222.709,886.000,885.000,868.000,848.000,872.000,875.000
3230.650,890.000,884.000,884.000,907.000,892.000,876.000
3238.584,882.000,890.000,886.000,887.000,886.000,877.000
3246.507,905.000,887.000,914.000,874.000,876.000,893.000
3254.425,898.000,895.000,892.000,886.000,899.000,889.000
3262.334,912.000,894.000,901.000,891.000,909.000,890.000
3270.234,909.000,887.000,906.000,913.000,884.000,895.000
3278.127,894.000,909.000,883.000,912.000,905.000,906.000
3286.013,911.000,922.000,912.000,895.000,902.000,912.000
3293.890,919.000,914.000,919.000,893.000,899.000,914.000
3301.757,900.000,914.000,920.000,915.000,914.000,919.000
3309.618,937.000,936.000,928.000,921.000,919.000,929.000
3317.472,923.000,917.000,926.000,933.000,920.000,937.000
3325.316,930.000,926.000,928.000,922.000,936.000,935.000
3333.153,927.000,934.000,940.000,928.000,933.000,951.000
3340.982,970.000,959.000,933.000,951.000,950.000,931.000
3348.803,950.000,935.000,938.000,936.000,935.000,962.000
3356.615,953.000,977.000,948.000,961.000,957.000,957.000
3364.421,971.000,970.000,963.000,946.000,963.000,970.000
3372.217,967.000,994.000,963.000,963.000,955.000,977.000
3380.008,993.000,988.000,965.000,959.000,986.000,977.000
3387.789,989.000,980.000,979.000,988.000,965.000,973.000
3395.562,996.000,991.000,992.000,1000.000,999.000,982.000
3403.328,1006.000,999.000,1002.000,1005.000,995.000,996.000
3411.087,1010.000,984.000,999.000,1025.000,1010.000,1010.000
3418.838,1004.000,1021.000,989.000,1021.000,1029.000,1006.000
3426.579,1018.000,1032.000,998.000,1005.000,996.000,1016.000
3434.314,999.000,1036.000,1036.000,1033.000,1018.000,1018.000
3442.041,1017.000,992.000,1011.000,1013.000,989.000,1007.000
3449.759,1033.000,1030.000,1014.000,1034.000,1030.000,1019.000
3457.472,1022.000,1026.000,1037.000,1045.000,1034.000,1015.000
3465.175,1025.000,1019.000,1005.000,1036.000,1021.000,1019.000
3472.870,1039.000,1027.000,1029.000,1029.000,1028.000,1029.000
3480.559,1017.000,1007.000,1021.000,1029.000,1020.000,1002.000
3488.239,1031.000,1041.000,1036.000,1033.000,1019.000,1021.000
3495.911,1037.000,1010.000,1023.000,1008.000,1035.000,1027.000
3503.577,1020.000,1017.000,1034.000,1028.000,1019.000,1023.000
3511.235,999.000,1009.000,1029.000,1017.000,1006.000,993.000
3518.883,1008.000,1028.000,1025.000,989.000,991.000,998.000
3526.526,1000.000,994.000,996.000,1015.000,1026.000,997.000
3534.160,1008.000,999.000,988.000,985.000,998.000,1011.000
3541.787,996.000,992.000,1011.000,975.000,973.000,986.000
3549.406,987.000,999.000,978.000,1019.000,977.000,983.000
3557.017,977.000,1006.000,986.000,967.000,981.000,989.000
3564.623,979.000,992.000,983.000,987.000,971.000,979.000
3572.218,977.000,981.000,986.000,968.000,967.000,999.000
3579.807,988.000,970.000,998.000,967.000,971.000,972.000
3587.389,977.000,998.000,958.000,965.000,970.000,963.000
3594.961,984.000,965.000,987.000,988.000,980.000,980.000
3602.528,971.000,963.000,957.000,966.000,970.000,979.000
3610.086,962.000,972.000,960.000,954.000,942.000,964.000
3617.637,941.000,955.000,959.000,955.000,954.000,937.000
3625.181,959.000,955.000,965.000,944.000,937.000,949.000
3632.718,939.000,941.000,935.000,939.000,928.000,958.000
3640.245,923.000,953.000,922.000,945.000,925.000,938.000
3647.767,919.000,924.000,939.000,930.000,926.000,926.000
3655.281,928.000,921.000,920.000,919.000,914.000,902.000
3662.786,893.000,897.000,886.000,905.000,911.000,911.000
3670.285,896.000,882.000,897.000,891.000,880.000,887.000
3677.777,886.000,851.000,855.000,856.000,851.000,865.000
3685.262,846.000,835.000,839.000,839.000,820.000,854.000
3692.737,820.000,809.000,826.000,816.000,812.000,825.000
3700.206,795.000,797.000,792.000,795.000,813.000,807.000
3707.668,799.000,790.000,778.000,791.000,784.000,781.000
3715.122,782.000,780.000,771.000,783.000,780.000,786.000
3722.569,756.000,776.000,767.000,767.000,770.000,775.000
3730.009,769.000,768.000,767.000,747.000,769.000,750.000
3737.441,759.000,781.000,759.000,775.000,766.000,753.000
3744.866,758.000,759.000,752.000,781.000,753.000,763.000
3752.284,749.000,752.000,760.000,759.000,763.000,747.000
3759.694,763.000,748.000,771.000,757.000,755.000,755.000
3767.097,763.000,758.000,756.000,766.000,761.000,740.000
3774.494,763.000,746.000,748.000,758.000,760.000,766.000
3781.882,772.000,757.000,751.000,761.000,758.000,750.000
3789.262,745.000,755.000,744.000,756.000,756.000,742.000
3796.637,743.000,753.000,762.000,764.000,758.000,767.000
3804.003,759.000,764.000,751.000,756.000,740.000,756.000
3811.363,747.000,756.000,759.000,764.000,742.000,742.000
3818.715,745.000,746.000,750.000,749.000,752.000,745.000
3826.061,747.000,748.000,742.000,751.000,741.000,747.000
3833.398,758.000,749.000,759.000,748.000,750.000,740.000
3840.730,734.000,756.000,757.000,764.000,742.000,748.000
3848.053,754.000,752.000,754.000,750.000,745.000,760.000
3855.369,751.000,738.000,756.000,748.000,753.000,747.000
3862.679,732.000,755.000,743.000,763.000,753.000,751.000
3869.981,763.000,748.000,747.000,758.000,757.000,747.000
3877.275,748.000,765.000,736.000,754.000,748.000,743.000
3884.563,741.000,747.000,742.000,753.000,760.000,752.000
3891.844,741.000,737.000,735.000,747.000,745.000,749.000
3899.117,770.000,756.000,744.000,755.000,754.000,735.000
3906.383,746.000,759.000,739.000,748.000,740.000,760.000
3913.643,755.000,742.000,754.000,747.000,749.000,750.000
3920.897,748.000,751.000,746.000,750.000,739.000,747.000
3928.140,740.000,738.000,745.000,760.000,741.000,738.000
3935.379,748.000,745.000,734.000,749.000,760.000,747.000
3942.610,763.000,746.000,750.000,760.000,743.000,745.000
3949.834,763.000,759.000,751.000,753.000,762.000,728.000
3957.052,761.000,767.000,754.000,760.000,748.000,746.000
3964.261,752.000,739.000,763.000,757.000,733.000,751.000
3971.464,759.000,745.000,752.000,764.000,752.000,760.000
3978.661,923.000,758.000,754.000,754.000,752.000,747.000
3985.849,755.000,759.000,754.000,770.000,766.000,770.000
3989.441,772.000,771.000,752.000,761.000,767.000,763.000