File: Raman/Silica/2025_08_22_Nat_Qtz_50X_532nm_74mW_Andor750_600gv_0wn_3accum_5s_UnPol.csv
-1133.215,639.000,639.000,643.000
-1124.463,643.000,638.000,642.000
-1115.718,636.000,644.000,641.000
-1106.982,640.000,633.000,646.000
-1098.253,644.000,641.000,650.000
-1089.531,642.000,646.000,638.000
-1080.819,643.000,641.000,645.000
-1072.111,642.000,642.000,647.000
-1063.415,645.000,641.000,641.000
-1054.723,643.000,641.000,643.000
-1046.041,644.000,647.000,644.000
-1037.363,643.000,646.000,647.000
-1028.697,640.000,647.000,645.000
-1020.036,643.000,652.000,643.000
-1011.384,645.000,640.000,647.000
-1002.739,637.000,645.000,635.000
-994.101,644.000,645.000,643.000
-985.470,641.000,638.000,639.000
-976.848,638.000,646.000,645.000
-968.234,642.000,655.000,641.000
-959.626,651.000,635.000,639.000
-951.025,640.000,642.000,648.000
-942.431,646.000,647.000,645.000
-933.847,642.000,645.000,644.000
-925.269,639.000,634.000,638.000
-916.699,645.000,645.000,648.000
-908.135,642.000,639.000,649.000
-899.581,643.000,640.000,644.000
-891.034,642.000,647.000,644.000
-882.494,651.000,644.000,645.000
-873.961,641.000,643.000,648.000
-865.434,642.000,649.000,646.000
-856.915,643.000,648.000,646.000
-848.405,647.000,641.000,645.000
-839.902,648.000,650.000,648.000
-831.406,650.000,646.000,645.000
-822.917,643.000,642.000,650.000
-814.435,650.000,639.000,642.000
-805.962,648.000,645.000,639.000
-797.494,647.000,644.000,644.000
-789.036,654.000,643.000,656.000
-780.582,645.000,651.000,652.000
-772.137,645.000,646.000,652.000
-763.699,643.000,653.000,650.000
-755.270,650.000,648.000,640.000
-746.844,650.000,643.000,641.000
-738.430,654.000,648.000,645.000
-730.021,648.000,647.000,636.000
-721.621,643.000,646.000,645.000
-713.225,646.000,642.000,646.000
-704.839,650.000,643.000,651.000
-696.459,644.000,653.000,645.000
-688.087,651.000,648.000,659.000
-679.720,648.000,648.000,650.000
-671.364,655.000,646.000,648.000
-663.011,651.000,650.000,646.000
-654.669,647.000,644.000,643.000
-646.331,638.000,649.000,644.000
-638.002,646.000,651.000,651.000
-629.679,649.000,651.000,641.000
-621.365,647.000,646.000,649.000
-613.055,648.000,651.000,654.000
-604.756,648.000,648.000,649.000
-596.460,648.000,650.000,641.000
-588.175,650.000,649.000,653.000
-579.893,650.000,647.000,652.000
-571.622,644.000,654.000,649.000
-563.355,648.000,651.000,656.000
-555.098,648.000,650.000,656.000
-546.845,655.000,654.000,651.000
-538.602,657.000,656.000,644.000
-530.363,652.000,659.000,656.000
-522.134,662.000,656.000,651.000
-513.909,662.000,659.000,662.000
-505.693,658.000,674.000,665.000
-497.483,672.000,671.000,659.000
-489.281,658.000,669.000,667.000
-481.084,676.000,674.000,680.000
-472.897,695.000,694.000,691.000
-464.714,747.000,748.000,737.000
-456.541,870.000,892.000,909.000
-448.372,1923.000,1901.000,1921.000
-440.212,1053.000,1024.000,1049.000
-432.057,782.000,773.000,782.000
-423.911,680.000,686.000,689.000
-415.770,661.000,658.000,665.000
-407.638,664.000,665.000,659.000
-399.510,657.000,658.000,658.000
-391.392,663.000,661.000,664.000
-383.278,708.000,698.000,701.000
-375.173,661.000,664.000,663.000
-367.073,657.000,653.000,650.000
-358.982,647.000,654.000,659.000
-350.896,661.000,656.000,661.000
-342.819,673.000,673.000,663.000
-334.746,667.000,663.000,659.000
-326.683,654.000,647.000,659.000
-318.623,657.000,650.000,647.000
-310.573,649.000,660.000,648.000
-302.528,663.000,649.000,660.000
-294.492,664.000,658.000,663.000
-286.459,663.000,667.000,659.000
-278.436,657.000,663.000,671.000
-270.417,666.000,668.000,672.000
-262.408,682.000,680.000,666.000
-254.403,715.000,714.000,724.000
-246.406,870.000,845.000,862.000
-238.416,731.000,730.000,738.000
-230.433,750.000,740.000,763.000
-222.454,796.000,786.000,802.000
-214.485,891.000,883.000,889.000
-206.520,1065.000,1062.000,1058.000
-198.564,1416.000,1441.000,1455.000
-190.613,1794.000,1815.000,1782.000
-182.670,1428.000,1428.000,1448.000
-174.732,1035.000,1039.000,1044.000
-166.803,895.000,867.000,891.000
-158.877,815.000,791.000,789.000
-150.961,769.000,763.000,774.000
-143.049,746.000,748.000,754.000
-135.147,795.000,815.000,788.000
-127.248,824.000,806.000,816.000
-119.359,1016.000,1029.000,1011.000
-111.473,1920.000,1861.000,1883.000
-103.596,820.000,795.000,809.000
-95.724,722.000,720.000,722.000
-87.860,699.000,699.000,693.000
-80.001,717.000,713.000,719.000
-72.151,691.000,685.000,681.000
-64.305,690.000,696.000,697.000
-56.468,710.000,715.000,728.000
-48.634,704.000,717.000,703.000
-40.810,695.000,693.000,694.000
-32.990,709.000,709.000,723.000
-25.179,736.000,728.000,736.000
-17.372,728.000,729.000,716.000
-9.573,769.000,774.000,765.000
-1.779,1426.000,1446.000,1449.000
6.007,8423.000,8455.000,8316.000
13.788,3025.000,3008.000,2961.000
21.560,5947.000,5908.000,6094.000
29.328,870.000,859.000,884.000
37.088,742.000,744.000,758.000
44.844,722.000,711.000,720.000
52.590,735.000,720.000,723.000
60.333,738.000,762.000,757.000
68.068,705.000,707.000,692.000
75.798,707.000,714.000,716.000
83.518,754.000,756.000,757.000
91.235,704.000,720.000,699.000
98.944,707.000,707.000,709.000
106.649,752.000,756.000,770.000
114.345,733.000,735.000,727.000
122.037,772.000,765.000,778.000
129.720,918.000,927.000,941.000
137.399,3180.000,3146.000,3110.000
145.069,1288.000,1301.000,1305.000
152.736,965.000,972.000,963.000
160.394,913.000,925.000,960.000
168.049,883.000,869.000,875.000
175.694,888.000,885.000,874.000
183.335,980.000,967.000,961.000
190.968,1150.000,1142.000,1126.000
198.597,1471.000,1483.000,1461.000
206.218,2317.000,2296.000,2276.000
213.834,3360.000,3407.000,3368.000
221.441,3098.000,3168.000,3158.000
229.046,2180.000,2133.000,2133.000
236.640,1485.000,1477.000,1490.000
244.232,1187.000,1171.000,1177.000
251.815,1009.000,1033.000,1014.000
259.395,951.000,939.000,940.000
266.965,946.000,944.000,965.000
274.531,1576.000,1565.000,1574.000
282.090,834.000,832.000,836.000
289.644,751.000,748.000,753.000
297.190,719.000,733.000,730.000
304.733,718.000,709.000,712.000
312.266,706.000,695.000,711.000
319.796,699.000,704.000,696.000
327.318,701.000,691.000,699.000
334.834,691.000,697.000,699.000
342.344,691.000,696.000,697.000
349.850,697.000,689.000,686.000
357.346,703.000,693.000,706.000
364.839,1052.000,1039.000,1034.000
372.324,742.000,744.000,740.000
379.805,712.000,717.000,711.000
387.277,713.000,709.000,704.000
394.746,714.000,702.000,705.000
402.207,776.000,787.000,778.000
409.664,1042.000,1054.000,1043.000
417.112,759.000,769.000,752.000
424.555,745.000,748.000,733.000
431.994,751.000,755.000,740.000
439.425,792.000,773.000,771.000
446.850,869.000,855.000,859.000
454.268,1123.000,1117.000,1158.000
461.683,1874.000,1891.000,1891.000
469.092,6615.000,6600.000,6703.000
476.492,8753.000,8704.000,8858.000
483.886,2547.000,2539.000,2544.000
491.277,1523.000,1532.000,1510.000
498.661,1168.000,1151.000,1159.000
506.038,1001.000,994.000,994.000
513.409,905.000,898.000,896.000
520.775,844.000,841.000,843.000
528.136,831.000,841.000,861.000
535.489,849.000,827.000,836.000
542.836,801.000,792.000,801.000
550.180,770.000,772.000,766.000
557.516,758.000,747.000,756.000
564.846,739.000,730.000,724.000
572.169,715.000,732.000,719.000
579.488,717.000,722.000,724.000
586.801,724.000,713.000,724.000
594.108,721.000,722.000,723.000
601.407,720.000,731.000,737.000
608.704,708.000,715.000,729.000
615.991,708.000,710.000,712.000
623.276,710.000,706.000,707.000
630.553,705.000,702.000,706.000
637.825,708.000,704.000,709.000
645.089,711.000,699.000,698.000
652.350,705.000,689.000,710.000
659.604,712.000,706.000,708.000
666.853,694.000,699.000,691.000
674.095,685.000,694.000,700.000
681.333,691.000,695.000,692.000
688.562,713.000,699.000,708.000
695.789,727.000,734.000,734.000
703.008,838.000,843.000,840.000
710.223,748.000,750.000,742.000
717.430,694.000,706.000,699.000
724.633,688.000,691.000,711.000
731.828,698.000,698.000,699.000
739.020,693.000,694.000,688.000
746.204,697.000,695.000,700.000
753.385,696.000,700.000,705.000
760.557,698.000,695.000,698.000
767.726,690.000,692.000,697.000
774.888,695.000,693.000,701.000
782.045,710.000,713.000,716.000
789.195,709.000,731.000,733.000
796.341,813.000,795.000,791.000
803.479,956.000,974.000,962.000
810.615,943.000,934.000,934.000
817.743,850.000,848.000,845.000
824.866,763.000,741.000,764.000
831.981,732.000,730.000,722.000
839.094,712.000,721.000,724.000
846.199,735.000,711.000,701.000
853.299,722.000,722.000,716.000
860.394,730.000,718.000,720.000
867.483,726.000,708.000,718.000
874.565,709.000,709.000,717.000
879.875,716.000,703.000,712.000