File: Raman/2022_11_26/Data/2022_11_26_Hagfish_Film_Unstreched_532nm_Pol_6mW_750mm_600gv_0wn_iDus_100s_10accum_Pos1.csv
-1054.088,691.000,690.000,700.000,689.000,701.000,700.000,700.000,707.000,684.000,682.000
-1032.397,704.000,703.000,699.000,699.000,704.000,700.000,691.000,693.000,701.000,695.000
-1010.751,699.000,704.000,711.000,700.000,708.000,686.000,698.000,716.000,698.000,693.000
-989.154,988.000,708.000,711.000,702.000,706.000,707.000,705.000,690.000,707.000,709.000
-967.603,701.000,700.000,714.000,703.000,707.000,710.000,695.000,704.000,704.000,699.000
-946.100,704.000,704.000,714.000,696.000,716.000,712.000,704.000,720.000,704.000,703.000
-924.643,702.000,712.000,705.000,708.000,701.000,709.000,713.000,707.000,702.000,704.000
-903.233,716.000,723.000,716.000,1344.000,714.000,715.000,711.000,705.000,713.000,714.000
-881.869,717.000,721.000,708.000,714.000,715.000,719.000,717.000,704.000,715.000,715.000
-860.552,724.000,724.000,732.000,711.000,714.000,714.000,715.000,720.000,712.000,724.000
-839.280,730.000,719.000,736.000,725.000,720.000,720.000,717.000,718.000,717.000,732.000
-818.055,736.000,736.000,729.000,727.000,732.000,725.000,711.000,723.000,725.000,746.000
-796.875,727.000,730.000,734.000,738.000,735.000,719.000,733.000,733.000,731.000,729.000
-775.742,735.000,726.000,732.000,735.000,730.000,732.000,738.000,732.000,728.000,728.000
-754.653,743.000,735.000,737.000,727.000,740.000,729.000,735.000,728.000,740.000,738.000
-733.610,741.000,732.000,745.000,748.000,744.000,748.000,755.000,739.000,732.000,741.000
-712.612,735.000,728.000,747.000,751.000,740.000,738.000,740.000,730.000,755.000,739.000
-691.659,752.000,741.000,735.000,750.000,749.000,747.000,747.000,752.000,747.000,740.000
-670.753,759.000,758.000,744.000,753.000,748.000,759.000,745.000,758.000,749.000,748.000
-649.889,767.000,757.000,746.000,757.000,758.000,747.000,762.000,763.000,755.000,747.000
-629.071,749.000,763.000,755.000,766.000,769.000,773.000,748.000,760.000,771.000,747.000
-608.297,763.000,763.000,775.000,773.000,763.000,769.000,757.000,753.000,770.000,759.000
-587.569,768.000,775.000,768.000,764.000,771.000,773.000,770.000,769.000,767.000,754.000
-566.883,781.000,771.000,777.000,782.000,768.000,765.000,772.000,778.000,776.000,756.000
-546.242,794.000,788.000,786.000,786.000,779.000,779.000,787.000,794.000,784.000,764.000
-525.644,791.000,802.000,800.000,785.000,782.000,783.000,777.000,795.000,780.000,792.000
-505.093,808.000,790.000,808.000,774.000,807.000,793.000,804.000,795.000,795.000,779.000
-484.583,788.000,804.000,792.000,799.000,801.000,803.000,786.000,802.000,803.000,792.000
-464.116,820.000,805.000,806.000,812.000,809.000,811.000,811.000,806.000,808.000,802.000
-443.693,806.000,809.000,828.000,807.000,822.000,805.000,823.000,813.000,828.000,810.000
-423.316,817.000,818.000,812.000,826.000,832.000,832.000,795.000,815.000,827.000,831.000
-402.979,824.000,846.000,841.000,819.000,845.000,817.000,832.000,835.000,807.000,834.000
-382.685,851.000,815.000,842.000,835.000,824.000,833.000,823.000,827.000,827.000,835.000
-362.434,851.000,821.000,845.000,838.000,851.000,840.000,844.000,847.000,848.000,852.000
-342.229,881.000,871.000,853.000,866.000,864.000,855.000,853.000,868.000,855.000,857.000
-322.063,888.000,878.000,893.000,895.000,897.000,887.000,874.000,869.000,880.000,882.000
-301.940,908.000,884.000,896.000,910.000,919.000,903.000,905.000,882.000,909.000,883.000
-281.859,922.000,913.000,915.000,904.000,932.000,1313.000,921.000,930.000,917.000,937.000
-261.823,980.000,958.000,966.000,954.000,959.000,988.000,961.000,960.000,975.000,947.000
-241.826,1042.000,976.000,1022.000,1019.000,1000.000,1002.000,996.000,997.000,1015.000,1025.000
-221.871,1051.000,1056.000,1061.000,1063.000,1066.000,1050.000,1071.000,1017.000,1052.000,1032.000
-201.959,1101.000,1082.000,1113.000,1062.000,1094.000,1096.000,1088.000,1093.000,1087.000,1075.000
-182.090,1175.000,1163.000,1177.000,1170.000,1139.000,1206.000,1182.000,1175.000,1172.000,1170.000
-162.260,1291.000,1305.000,1296.000,1297.000,1291.000,1287.000,1288.000,1321.000,1313.000,1294.000
-142.472,1483.000,1504.000,1458.000,1502.000,1475.000,1512.000,1513.000,1494.000,1505.000,1496.000
-122.724,1783.000,1802.000,1845.000,1805.000,1820.000,1786.000,1799.000,1754.000,1774.000,1796.000
-103.021,2272.000,2273.000,2325.000,2280.000,2242.000,2240.000,2248.000,2267.000,2264.000,2256.000
-83.356,2969.000,3009.000,2984.000,2961.000,2966.000,3005.000,2931.000,2908.000,2966.000,2989.000
-63.732,3647.000,3652.000,3654.000,3604.000,3600.000,3587.000,3565.000,3609.000,3639.000,3578.000
-44.149,4263.000,4208.000,4295.000,4137.000,4216.000,4198.000,4195.000,4150.000,4113.000,4122.000
-24.608,5068.000,5038.000,5131.000,5045.000,4968.000,5020.000,4954.000,4995.000,5018.000,5023.000
-5.106,4934.000,4901.000,4942.000,4964.000,4913.000,4927.000,4912.000,4843.000,4967.000,4898.000
14.356,4739.000,4720.000,4666.000,4653.000,4670.000,4614.000,4693.000,4688.000,4687.000,4715.000
33.777,5656.000,5646.000,5711.000,5633.000,5643.000,5664.000,5620.000,5609.000,5663.000,5632.000
53.157,5228.000,5211.000,5188.000,5141.000,5130.000,5146.000,5172.000,5117.000,5178.000,5131.000
72.498,4664.000,4789.000,4691.000,4723.000,4658.000,4580.000,4646.000,4627.000,4652.000,4735.000
91.800,4048.000,4069.000,4005.000,3957.000,4071.000,3967.000,4013.000,4005.000,3944.000,3981.000
111.061,3495.000,3436.000,3420.000,3374.000,3436.000,3425.000,3369.000,3426.000,3433.000,3325.000
130.281,2815.000,2747.000,2787.000,2672.000,2754.000,2762.000,2721.000,2734.000,2761.000,2747.000
149.464,2219.000,2208.000,2206.000,2227.000,2215.000,2196.000,2246.000,2224.000,2257.000,2216.000
168.607,1980.000,1907.000,1970.000,1978.000,1938.000,1991.000,1909.000,1913.000,1937.000,1931.000
187.711,1784.000,1709.000,1732.000,1720.000,1753.000,1712.000,1715.000,1723.000,1702.000,1768.000
206.774,1613.000,1642.000,1622.000,1599.000,1586.000,1620.000,1639.000,1592.000,1605.000,1623.000
225.800,1591.000,1590.000,1598.000,1591.000,1584.000,1605.000,1613.000,1588.000,1584.000,1596.000
244.787,1561.000,1574.000,1559.000,1537.000,1551.000,1526.000,1533.000,1538.000,1550.000,1519.000
263.735,1502.000,1520.000,1487.000,1468.000,1485.000,1474.000,1503.000,1459.000,1469.000,1463.000
282.643,1495.000,1485.000,1484.000,1464.000,1456.000,1469.000,1453.000,1476.000,1439.000,1444.000
301.513,1366.000,1403.000,1357.000,1361.000,1361.000,1355.000,1330.000,1375.000,1337.000,1369.000
320.346,1295.000,1330.000,1317.000,1297.000,1306.000,1335.000,1285.000,1314.000,1297.000,1300.000
339.140,1302.000,1315.000,1316.000,1302.000,1300.000,1276.000,1318.000,1294.000,1287.000,1276.000
357.894,1249.000,1223.000,1244.000,1225.000,1227.000,1257.000,1236.000,1231.000,1234.000,1207.000
376.612,1221.000,1221.000,1252.000,1195.000,1220.000,1200.000,1191.000,1198.000,1228.000,1197.000
395.292,1219.000,1237.000,1235.000,1243.000,1232.000,1234.000,1200.000,1232.000,1207.000,1217.000
413.934,1266.000,1270.000,1258.000,1281.000,1273.000,1282.000,1245.000,1247.000,1233.000,1258.000
432.536,3914.000,1245.000,1242.000,1223.000,1268.000,1253.000,1248.000,1219.000,1230.000,1235.000
451.103,1279.000,1284.000,1260.000,1251.000,1272.000,1246.000,1235.000,1239.000,1239.000,1244.000
469.633,1241.000,1252.000,1213.000,1231.000,1218.000,1222.000,1217.000,1206.000,1196.000,1228.000
488.124,1268.000,1235.000,1243.000,1259.000,1230.000,1224.000,1238.000,1271.000,1276.000,1235.000
506.577,1261.000,1243.000,1260.000,1246.000,1256.000,1255.000,1237.000,1232.000,1247.000,1238.000
524.994,1258.000,1273.000,1279.000,1246.000,1258.000,1272.000,1247.000,1272.000,1227.000,1238.000
543.375,1307.000,1326.000,1283.000,1293.000,1308.000,1318.000,1275.000,1285.000,1309.000,1275.000
561.718,1277.000,1279.000,1270.000,1284.000,1277.000,1266.000,1286.000,1270.000,1274.000,1279.000
580.023,1291.000,1304.000,1266.000,1285.000,1285.000,1258.000,1259.000,1275.000,1290.000,1266.000
598.293,1288.000,1270.000,1283.000,1270.000,1305.000,1253.000,1268.000,1250.000,1267.000,1235.000
616.526,1246.000,1287.000,1266.000,1264.000,1279.000,1213.000,1265.000,1260.000,1206.000,1247.000
634.723,1290.000,1285.000,1301.000,1287.000,1327.000,1310.000,1281.000,1292.000,1278.000,1280.000
652.881,1292.000,1293.000,1279.000,1305.000,1288.000,1297.000,1267.000,1290.000,1290.000,1265.000
671.005,1319.000,1288.000,1293.000,1240.000,1297.000,1294.000,1259.000,1293.000,1279.000,1246.000
689.093,1322.000,1341.000,1306.000,1277.000,1292.000,1304.000,1296.000,1254.000,1276.000,1279.000
707.145,1310.000,1339.000,1330.000,1342.000,1314.000,1287.000,1291.000,1287.000,1314.000,1302.000
725.159,1408.000,1378.000,1392.000,1393.000,1399.000,1409.000,1393.000,1388.000,1388.000,1388.000
743.139,1401.000,1414.000,1346.000,1412.000,1399.000,1402.000,1383.000,1379.000,1374.000,1370.000
761.084,1486.000,1481.000,1456.000,1481.000,1471.000,1498.000,1465.000,1487.000,1450.000,1431.000
778.992,1426.000,1406.000,1439.000,1428.000,1417.000,1444.000,1416.000,1407.000,1392.000,1404.000
796.864,1405.000,1399.000,1382.000,1407.000,1380.000,1409.000,1368.000,1363.000,1383.000,1345.000
814.701,1456.000,1466.000,1451.000,1463.000,1433.000,1481.000,1446.000,1427.000,1446.000,1464.000
832.504,1588.000,1626.000,1609.000,1587.000,1617.000,1592.000,1619.000,1614.000,1564.000,1591.000
850.271,1816.000,1714.000,1756.000,1684.000,1746.000,1721.000,1726.000,1708.000,1725.000,1711.000
868.001,1584.000,1597.000,1567.000,1579.000,1612.000,1605.000,1614.000,1608.000,1591.000,1611.000
885.698,1720.000,1690.000,1674.000,1671.000,1688.000,1732.000,1672.000,1662.000,1642.000,1675.000
903.360,1732.000,1734.000,1719.000,1714.000,1715.000,1722.000,1749.000,1720.000,1703.000,1740.000
920.988,1868.000,1802.000,1815.000,1803.000,1832.000,1804.000,1826.000,1785.000,1787.000,1801.000
938.579,1995.000,2002.000,2010.000,1962.000,1990.000,1986.000,2037.000,1978.000,1988.000,1959.000
943.850,2078.000,2056.000,2107.000,2076.000,2091.000,2039.000,2096.000,2059.000,2048.000,2084.000