File: Raman/2022_11_26/Data/2022_11_26_Nylon6_532nm_Pol_6mW_750mm_600gv_1200wn_iDus_100s_10accum_Pos1.csv
282.050,1443.000,1415.000,1461.000,1422.000,1422.000,1447.000,1435.000,1431.000,1417.000,1406.000
300.870,1440.000,1433.000,1386.000,1419.000,1415.000,1427.000,1394.000,1407.000,1427.000,1436.000
319.652,1321.000,1309.000,1293.000,1304.000,1293.000,1276.000,1286.000,1297.000,1267.000,1312.000
338.396,1277.000,1223.000,1256.000,1278.000,1255.000,1254.000,1234.000,1249.000,1223.000,1265.000
357.101,1192.000,1175.000,1166.000,1171.000,1167.000,1188.000,1175.000,1160.000,1167.000,1172.000
375.769,1173.000,1133.000,1133.000,1118.000,1152.000,1132.000,1182.000,1128.000,1116.000,1143.000
394.399,1047.000,1052.000,1076.000,1055.000,1032.000,1049.000,1058.000,1067.000,1033.000,1042.000
412.991,1032.000,1010.000,1031.000,1003.000,1002.000,1000.000,998.000,979.000,990.000,987.000
431.546,1108.000,1107.000,1101.000,1090.000,1101.000,1110.000,1107.000,1106.000,1104.000,1086.000
450.064,1020.000,1030.000,1019.000,1014.000,1015.000,993.000,1016.000,978.000,1003.000,1013.000
468.544,981.000,956.000,959.000,986.000,959.000,955.000,952.000,977.000,943.000,954.000
486.987,992.000,984.000,969.000,985.000,959.000,979.000,983.000,981.000,940.000,959.000
505.393,1057.000,1059.000,1052.000,1034.000,1072.000,1065.000,1039.000,1053.000,1032.000,1040.000
523.762,1104.000,1087.000,1120.000,1091.000,1097.000,1088.000,1114.000,1071.000,1094.000,1097.000
542.094,1207.000,1161.000,1173.000,1165.000,1179.000,1175.000,1162.000,1121.000,1173.000,1150.000
560.389,1012.000,1004.000,974.000,976.000,965.000,978.000,982.000,987.000,961.000,957.000
578.647,1418.000,1368.000,1374.000,1388.000,1795.000,1392.000,1359.000,1358.000,1367.000,1333.000
596.870,1415.000,1367.000,1360.000,1368.000,1388.000,1375.000,1361.000,1390.000,1385.000,1343.000
615.055,1320.000,1277.000,1262.000,1274.000,1278.000,1257.000,1286.000,1283.000,1286.000,1282.000
633.205,1228.000,1227.000,1237.000,1215.000,1210.000,1224.000,1216.000,1244.000,1226.000,1212.000
651.318,1148.000,1124.000,1109.000,1103.000,1086.000,1094.000,1088.000,1084.000,1100.000,1081.000
669.395,1117.000,1063.000,1091.000,1050.000,1069.000,1091.000,1089.000,1038.000,1053.000,1052.000
687.436,1131.000,1138.000,1143.000,1124.000,1125.000,1102.000,1085.000,1093.000,1098.000,1110.000
705.441,1212.000,1195.000,1212.000,1188.000,1197.000,1220.000,1197.000,1207.000,1240.000,1201.000
723.411,1251.000,1216.000,1240.000,1225.000,1238.000,1240.000,1210.000,1177.000,1201.000,1208.000
741.345,1305.000,1298.000,1309.000,1309.000,1313.000,1313.000,1307.000,1301.000,1277.000,1287.000
759.243,1268.000,1269.000,1297.000,1268.000,1291.000,1273.000,1288.000,1303.000,1290.000,1276.000
777.106,1280.000,1267.000,1260.000,1233.000,1249.000,1248.000,1246.000,1258.000,1198.000,1215.000
794.933,1221.000,1234.000,1213.000,1257.000,1202.000,1201.000,1224.000,1226.000,1223.000,1206.000
812.727,1350.000,1344.000,1371.000,1335.000,1331.000,1319.000,1327.000,1319.000,1280.000,1354.000
830.484,1630.000,1632.000,1642.000,1673.000,1660.000,1607.000,1651.000,1619.000,1632.000,1631.000
848.207,1751.000,1691.000,1720.000,1736.000,1718.000,1698.000,1725.000,1719.000,1711.000,1702.000
865.894,1754.000,1762.000,1698.000,1756.000,1732.000,1781.000,1727.000,1746.000,1715.000,1734.000
883.546,2005.000,2005.000,1999.000,2019.000,2028.000,2061.000,1994.000,2009.000,2017.000,1960.000
901.164,2058.000,2079.000,2078.000,2022.000,2023.000,2010.000,2024.000,2050.000,2036.000,2035.000
918.747,2648.000,2673.000,3147.000,2666.000,2585.000,2677.000,2648.000,2666.000,2647.000,2671.000
936.295,2456.000,2538.000,2508.000,2528.000,2488.000,2462.000,2497.000,2444.000,2455.000,2425.000
953.809,2263.000,2245.000,2262.000,2246.000,2259.000,2288.000,2215.000,2204.000,2216.000,2218.000
971.289,2246.000,2295.000,2247.000,2259.000,2266.000,2225.000,2301.000,2235.000,2216.000,2204.000
988.734,1857.000,1807.000,1814.000,1840.000,1799.000,1817.000,1763.000,1782.000,1783.000,1805.000
1006.146,1731.000,1751.000,1754.000,1678.000,1738.000,1674.000,1685.000,1719.000,1670.000,1710.000
1023.523,1763.000,1760.000,1740.000,1732.000,1757.000,1707.000,1739.000,1751.000,1724.000,1707.000
1040.867,2275.000,2237.000,2234.000,2333.000,2260.000,2267.000,2196.000,2251.000,2209.000,2259.000
1058.176,5576.000,5616.000,5695.000,5680.000,5669.000,5641.000,5624.000,5645.000,5653.000,5647.000
1075.452,4596.000,4632.000,4620.000,4605.000,4572.000,4538.000,4551.000,4525.000,4470.000,4546.000
1092.694,2905.000,2920.000,2879.000,2909.000,2889.000,2928.000,2849.000,2918.000,2875.000,2834.000
1109.903,3280.000,3318.000,3269.000,3265.000,3214.000,3261.000,3214.000,3182.000,3254.000,3235.000
1127.079,4126.000,4131.000,4079.000,4144.000,4104.000,4142.000,4581.000,4097.000,4076.000,4134.000
1144.221,1564.000,1575.000,1517.000,1539.000,1522.000,1554.000,1576.000,1523.000,1564.000,1504.000
1161.330,2687.000,2715.000,2663.000,2699.000,2625.000,2728.000,2659.000,2636.000,2623.000,2691.000
1178.405,1793.000,1800.000,1727.000,1813.000,1739.000,1741.000,1747.000,1726.000,1766.000,1729.000
1195.448,2864.000,2819.000,2826.000,2842.000,2814.000,2842.000,2801.000,2773.000,2832.000,2787.000
1212.458,2161.000,2136.000,2128.000,2112.000,2128.000,2148.000,2137.000,2125.000,2107.000,2117.000
1229.434,3012.000,2943.000,2998.000,2967.000,3000.000,3010.000,2950.000,3012.000,2985.000,3028.000
1246.379,2953.000,2928.000,2897.000,2879.000,2965.000,2913.000,2901.000,2873.000,2896.000,2865.000
1263.290,3792.000,3850.000,3728.000,3746.000,3770.000,3767.000,3736.000,3756.000,3796.000,3737.000
1280.169,5214.000,5135.000,5228.000,5155.000,5131.000,5086.000,5093.000,5174.000,5114.000,5042.000
1297.015,6093.000,6039.000,6056.000,6111.000,6116.000,6068.000,6099.000,6097.000,6187.000,6098.000
1313.830,3369.000,3360.000,3331.000,3288.000,3359.000,3391.000,3332.000,3327.000,3314.000,3278.000
1330.611,2235.000,2237.000,2256.000,2227.000,2207.000,2207.000,2149.000,2260.000,2205.000,2230.000
1347.361,2392.000,2387.000,2355.000,2351.000,2378.000,2392.000,2347.000,2330.000,2327.000,2327.000
1364.078,3203.000,3185.000,3178.000,3206.000,3178.000,3158.000,3177.000,3174.000,3175.000,3143.000
1380.764,3129.000,3200.000,3193.000,3140.000,3182.000,3144.000,3156.000,3124.000,3096.000,3136.000
1397.418,1942.000,1877.000,1905.000,1850.000,1835.000,1859.000,1857.000,1825.000,1844.000,1834.000
1414.039,3747.000,3804.000,3791.000,3759.000,3760.000,3744.000,3748.000,3709.000,3734.000,3722.000
1430.629,8696.000,8691.000,8662.000,8728.000,8659.000,8575.000,8794.000,8757.000,8654.000,8626.000
1447.188,5660.000,5548.000,5614.000,5642.000,5622.000,5523.000,5591.000,5602.000,5537.000,5639.000
1463.715,4897.000,4809.000,4754.000,4743.000,4725.000,4749.000,4733.000,4815.000,4774.000,4709.000
1480.210,2397.000,2348.000,2346.000,2349.000,2356.000,2365.000,2378.000,2353.000,2357.000,2384.000
1496.674,1394.000,1382.000,1374.000,1343.000,1363.000,1355.000,1336.000,1347.000,1353.000,1331.000
1513.107,1292.000,1286.000,1264.000,1302.000,1281.000,1281.000,1281.000,1295.000,1285.000,1313.000
1529.509,1493.000,1457.000,1482.000,1447.000,1464.000,1464.000,1433.000,1451.000,1431.000,1468.000
1545.879,1403.000,1378.000,1391.000,1368.000,1383.000,1364.000,1389.000,1346.000,1384.000,1359.000
1562.219,1243.000,1256.000,1236.000,1227.000,1252.000,1216.000,1230.000,1539.000,1225.000,1229.000
1578.527,1173.000,1155.000,1153.000,1142.000,1160.000,1101.000,1125.000,1130.000,1134.000,1143.000
1594.805,1390.000,1395.000,1393.000,1387.000,1397.000,1368.000,1349.000,1395.000,1390.000,1336.000
1611.052,1804.000,1819.000,1770.000,1776.000,1774.000,1794.000,1784.000,1780.000,1797.000,1746.000
1627.268,7411.000,7268.000,7386.000,7383.000,7291.000,7389.000,7383.000,7268.000,7234.000,7318.000
1643.454,3011.000,2992.000,3019.000,2958.000,2987.000,2987.000,2900.000,2959.000,2951.000,2984.000
1659.609,1964.000,2028.000,1988.000,1957.000,1986.000,1996.000,2010.000,1956.000,1972.000,1957.000
1675.734,1219.000,1207.000,1217.000,1192.000,1205.000,1206.000,1184.000,1186.000,1200.000,1197.000
1691.829,967.000,979.000,990.000,978.000,979.000,985.000,972.000,975.000,956.000,963.000
1707.893,940.000,953.000,958.000,931.000,933.000,910.000,928.000,921.000,925.000,897.000
1723.927,947.000,928.000,930.000,884.000,892.000,912.000,898.000,883.000,889.000,888.000
1739.931,920.000,904.000,915.000,890.000,889.000,895.000,907.000,888.000,889.000,900.000
1755.905,904.000,879.000,951.000,881.000,878.000,877.000,858.000,861.000,864.000,858.000
1771.849,871.000,869.000,881.000,858.000,862.000,851.000,868.000,848.000,840.000,847.000
1787.764,901.000,879.000,868.000,886.000,861.000,863.000,832.000,835.000,831.000,855.000
1803.649,876.000,892.000,863.000,874.000,875.000,863.000,868.000,861.000,842.000,849.000
1819.505,1927.000,875.000,887.000,861.000,881.000,857.000,880.000,853.000,845.000,840.000
1835.331,895.000,891.000,874.000,890.000,872.000,866.000,860.000,858.000,858.000,857.000
1851.127,895.000,876.000,909.000,874.000,867.000,895.000,872.000,868.000,866.000,861.000
1866.894,933.000,893.000,904.000,908.000,915.000,879.000,892.000,899.000,897.000,876.000
1882.631,928.000,904.000,924.000,912.000,912.000,896.000,924.000,903.000,904.000,888.000
1898.339,964.000,955.000,920.000,923.000,919.000,916.000,941.000,928.000,905.000,904.000
1914.018,940.000,919.000,918.000,912.000,919.000,941.000,933.000,917.000,904.000,901.000
1929.668,956.000,949.000,953.000,956.000,950.000,922.000,942.000,929.000,922.000,898.000
1945.289,982.000,1003.000,950.000,965.000,963.000,940.000,949.000,938.000,949.000,958.000
1960.881,1017.000,995.000,982.000,987.000,1005.000,993.000,960.000,963.000,981.000,972.000
1976.444,1041.000,1034.000,1028.000,1026.000,1010.000,1008.000,1030.000,1015.000,1017.000,1039.000
1991.978,1084.000,1087.000,1073.000,1077.000,1055.000,1079.000,1067.000,1071.000,1064.000,1073.000
2007.484,1175.000,1170.000,1175.000,1164.000,1176.000,2195.000,1136.000,1132.000,1167.000,1135.000
2022.961,1322.000,1338.000,1341.000,1280.000,1309.000,1282.000,1305.000,1280.000,1301.000,1274.000
2027.598,1426.000,1423.000,1372.000,1417.000,1390.000,1350.000,1387.000,1412.000,1388.000,1394.000