File: Raman/2022_11_26/Data/2022_11_26_Hagfish_Film_Unstreched_532nm_DePol_6mW_750mm_600gv_3200wn_iDus_100s_10accum_Pos1.csv
2487.376,1434.000,1401.000,1373.000,1355.000,1366.000,1314.000,1302.000,1278.000,1302.000,1296.000
2503.346,1426.000,1413.000,1413.000,1370.000,1332.000,1335.000,1337.000,1288.000,1313.000,1304.000
2519.284,1429.000,1435.000,1407.000,1409.000,1388.000,1373.000,1382.000,1360.000,1358.000,1346.000
2535.192,1471.000,1471.000,1461.000,1407.000,1372.000,1361.000,1398.000,1362.000,1335.000,1325.000
2551.068,1518.000,1463.000,1431.000,1439.000,1419.000,1375.000,1388.000,1392.000,1366.000,1369.000
2566.914,1519.000,1501.000,1476.000,1438.000,1433.000,1447.000,1417.000,1382.000,1383.000,1376.000
2582.727,1537.000,1503.000,1537.000,1495.000,1469.000,1447.000,1487.000,1401.000,1411.000,1383.000
2598.510,1575.000,1558.000,1500.000,1498.000,1447.000,1448.000,1459.000,1379.000,1394.000,1410.000
2614.264,1572.000,1569.000,1503.000,1492.000,1483.000,1460.000,1457.000,1421.000,1432.000,1421.000
2629.986,1609.000,1551.000,1574.000,1546.000,1504.000,1497.000,1439.000,1426.000,1455.000,1416.000
2645.678,1622.000,1575.000,1574.000,1501.000,1532.000,1489.000,1483.000,1469.000,1486.000,1432.000
2661.340,1656.000,1631.000,1571.000,1530.000,1555.000,1514.000,1468.000,1456.000,1464.000,1459.000
2676.971,1646.000,1596.000,1579.000,1599.000,1546.000,1543.000,1539.000,1467.000,1503.000,1474.000
2692.572,1677.000,1600.000,1603.000,1562.000,1545.000,1520.000,1527.000,1515.000,1499.000,1471.000
2708.142,1714.000,1649.000,1605.000,1618.000,1586.000,1532.000,1520.000,1485.000,1475.000,1493.000
2723.683,1723.000,1698.000,1618.000,1618.000,1598.000,1568.000,1541.000,1541.000,1530.000,1484.000
2739.194,1692.000,1669.000,1680.000,1655.000,1617.000,1571.000,1577.000,1557.000,1550.000,1508.000
2754.675,1694.000,1668.000,1652.000,1652.000,1628.000,1588.000,1542.000,1579.000,1573.000,1539.000
2770.124,2073.000,1683.000,1666.000,1628.000,1648.000,1621.000,1587.000,1541.000,1566.000,1540.000
2785.545,1722.000,1731.000,1729.000,1648.000,1646.000,1586.000,1599.000,1606.000,1599.000,1562.000
2800.937,1749.000,1747.000,1701.000,1688.000,1642.000,1613.000,1604.000,1594.000,1608.000,1602.000
2816.299,1777.000,1760.000,1751.000,1692.000,1695.000,1638.000,1644.000,1617.000,1589.000,1562.000
2831.631,1812.000,1743.000,1715.000,1699.000,1643.000,1653.000,1648.000,1604.000,1607.000,1612.000
2846.935,1790.000,1826.000,1731.000,1683.000,1705.000,1654.000,1662.000,1607.000,1602.000,1577.000
2862.208,1822.000,1833.000,1757.000,1760.000,1759.000,1737.000,1731.000,1673.000,1677.000,1677.000
2877.453,1913.000,1917.000,1838.000,1855.000,1808.000,1807.000,1801.000,1762.000,1818.000,1713.000
2892.668,2148.000,2107.000,2011.000,2013.000,1967.000,1986.000,1920.000,1942.000,1908.000,1886.000
2907.855,2183.000,2128.000,2081.000,2059.000,2064.000,2042.000,1943.000,2951.000,1949.000,1930.000
2923.012,2243.000,2238.000,2174.000,2154.000,2175.000,2142.000,2061.000,2125.000,2101.000,2073.000
2938.139,2376.000,2318.000,2329.000,2269.000,2249.000,2159.000,2218.000,2185.000,2190.000,2165.000
2953.239,2418.000,2372.000,2303.000,2257.000,2264.000,2231.000,2146.000,2194.000,2156.000,2180.000
2968.310,2454.000,2474.000,2390.000,2399.000,2379.000,2304.000,2276.000,2278.000,2271.000,2305.000
2983.353,2462.000,2477.000,2404.000,2370.000,2325.000,2337.000,2303.000,2328.000,2279.000,2265.000
2998.366,2266.000,2271.000,2195.000,2187.000,2188.000,2083.000,2073.000,2083.000,2059.000,2055.000
3013.352,2131.000,2052.000,2002.000,1966.000,1933.000,1948.000,1904.000,1877.000,1869.000,1874.000
3028.309,1965.000,1921.000,1916.000,1908.000,1872.000,1831.000,1778.000,1783.000,1850.000,1764.000
3043.237,2013.000,1983.000,1892.000,1908.000,1882.000,1841.000,1835.000,1822.000,1832.000,1783.000
3058.138,2030.000,1999.000,1961.000,1914.000,1900.000,1867.000,1835.000,1860.000,1836.000,1818.000
3073.010,2028.000,1975.000,1907.000,1887.000,1859.000,1858.000,1825.000,1811.000,2323.000,1821.000
3087.854,1936.000,1941.000,1844.000,1865.000,1791.000,1817.000,1737.000,1795.000,1780.000,1747.000
3102.670,1950.000,1951.000,1846.000,1856.000,1851.000,1751.000,1745.000,1746.000,1747.000,1737.000
3117.457,1932.000,1924.000,1859.000,1817.000,1799.000,1790.000,1780.000,1738.000,1721.000,1729.000
3132.217,1934.000,1924.000,1844.000,1789.000,1799.000,1771.000,1761.000,1725.000,1749.000,1719.000
3146.950,1955.000,1895.000,1857.000,1869.000,1795.000,1764.000,1741.000,1719.000,1669.000,1737.000
3161.655,1919.000,1907.000,1885.000,1795.000,1785.000,1739.000,1719.000,1736.000,1734.000,1684.000
3176.332,1953.000,1863.000,1828.000,1819.000,1818.000,1774.000,1735.000,1700.000,1747.000,1706.000
3190.982,1932.000,1888.000,1854.000,1870.000,1848.000,1795.000,1749.000,1741.000,1770.000,1722.000
3205.604,1971.000,1914.000,1884.000,1883.000,1832.000,1755.000,1798.000,1707.000,1735.000,1756.000
3220.199,1955.000,1937.000,1901.000,1870.000,1835.000,1796.000,1744.000,1743.000,1744.000,1748.000
3234.767,1963.000,1891.000,1896.000,1842.000,1812.000,1833.000,1776.000,1791.000,1746.000,1765.000
3249.307,1952.000,1990.000,1895.000,1858.000,1843.000,1832.000,1818.000,1797.000,2634.000,1724.000
3263.820,1973.000,1975.000,1924.000,1918.000,1842.000,1859.000,1807.000,1792.000,1830.000,1782.000
3278.305,2010.000,2000.000,1949.000,1911.000,1878.000,1848.000,1872.000,1804.000,1807.000,1805.000
3292.764,1999.000,2014.000,1908.000,1914.000,1860.000,1856.000,1831.000,1825.000,1787.000,1804.000
3307.197,1992.000,1979.000,1957.000,1917.000,1871.000,1849.000,1807.000,1805.000,1765.000,1803.000
3321.602,1988.000,1949.000,1879.000,1916.000,1877.000,1865.000,1824.000,1794.000,1808.000,1766.000
3335.981,1958.000,1961.000,1922.000,1906.000,1868.000,1783.000,1816.000,1770.000,1749.000,1779.000
3350.333,2050.000,1969.000,1950.000,1883.000,1849.000,1802.000,1858.000,1742.000,1749.000,1756.000
3364.658,2018.000,1930.000,1865.000,1890.000,1850.000,1829.000,1794.000,1790.000,1753.000,1784.000
3378.957,1976.000,1929.000,1896.000,1900.000,1866.000,1833.000,1793.000,1776.000,1784.000,1804.000
3393.229,1982.000,1922.000,1932.000,1886.000,1858.000,1781.000,1763.000,1803.000,1752.000,1746.000
3407.475,1985.000,1937.000,1915.000,1849.000,1817.000,1781.000,1819.000,1805.000,1727.000,1723.000
3421.695,1958.000,1899.000,1908.000,1867.000,1829.000,1787.000,1792.000,1763.000,1738.000,1757.000
3435.888,1946.000,1913.000,1888.000,1825.000,1830.000,1794.000,1720.000,1728.000,1740.000,1749.000
3450.056,1960.000,1904.000,1886.000,1823.000,1792.000,1782.000,1737.000,1716.000,1696.000,1707.000
3464.195,1931.000,1879.000,1865.000,1869.000,1859.000,1762.000,1744.000,1720.000,1748.000,1676.000
3478.310,1956.000,1951.000,1910.000,1872.000,1827.000,1783.000,1810.000,1784.000,1697.000,1731.000
3492.399,1972.000,1948.000,1841.000,1833.000,1811.000,1828.000,1781.000,1742.000,1713.000,1688.000
3506.463,1929.000,1885.000,1890.000,1816.000,1786.000,1783.000,1758.000,1761.000,1717.000,1720.000
3520.500,1891.000,1889.000,1860.000,1844.000,1818.000,1802.000,1755.000,1731.000,1716.000,1660.000
3534.512,1906.000,1886.000,1856.000,1806.000,1817.000,1774.000,1745.000,1728.000,1734.000,1707.000
3548.498,1912.000,1921.000,1913.000,1851.000,1774.000,1773.000,1788.000,1703.000,1716.000,1731.000
3562.458,1956.000,1833.000,1862.000,1826.000,1785.000,1783.000,1758.000,1763.000,1764.000,1710.000
3576.393,1932.000,1886.000,1856.000,1804.000,1795.000,1744.000,1761.000,1747.000,1700.000,1702.000
3590.302,1911.000,1911.000,1863.000,1857.000,1779.000,1796.000,1733.000,1738.000,1714.000,1693.000
3604.186,1902.000,1870.000,1835.000,1839.000,1831.000,1772.000,1715.000,1726.000,1709.000,1720.000
3618.043,1974.000,1887.000,1855.000,1816.000,1798.000,1757.000,1734.000,1711.000,1700.000,1720.000
3631.877,1934.000,1905.000,1872.000,1799.000,1823.000,1765.000,1729.000,1700.000,1729.000,1730.000
3645.685,1939.000,1880.000,1856.000,1855.000,1772.000,4063.000,1757.000,1727.000,1688.000,1713.000
3659.468,1928.000,1885.000,1828.000,1823.000,1818.000,1787.000,1738.000,1736.000,1734.000,1694.000
3673.226,1941.000,1888.000,1845.000,1827.000,1801.000,2440.000,1748.000,1728.000,1764.000,1738.000
3686.959,1988.000,1921.000,1880.000,1905.000,1806.000,1798.000,1763.000,1737.000,1736.000,1697.000
3700.667,1974.000,1940.000,1873.000,1865.000,1801.000,1789.000,1794.000,1735.000,1741.000,1705.000
3714.350,1947.000,1906.000,1913.000,1853.000,1838.000,1760.000,1769.000,1751.000,1755.000,1767.000
3728.008,1946.000,1874.000,1871.000,1881.000,1837.000,1787.000,1752.000,1712.000,1711.000,1724.000
3741.642,1960.000,1910.000,1907.000,1847.000,1784.000,1823.000,1787.000,1782.000,1778.000,1738.000
3755.251,1956.000,1978.000,1914.000,1861.000,1850.000,1805.000,1792.000,1791.000,1778.000,1760.000
3768.836,1963.000,1967.000,1898.000,1838.000,1817.000,1847.000,1807.000,1799.000,1806.000,1786.000
3782.394,1971.000,1918.000,1916.000,1882.000,1858.000,1854.000,1780.000,1786.000,1805.000,1814.000
3795.930,2029.000,1980.000,1880.000,1902.000,1861.000,1856.000,1807.000,1826.000,1763.000,1803.000
3809.441,2054.000,2061.000,1934.000,1975.000,1902.000,1885.000,1872.000,1814.000,1869.000,1853.000
3822.928,2075.000,2074.000,2039.000,1992.000,1990.000,1969.000,1932.000,1939.000,1874.000,1898.000
3836.391,2186.000,2188.000,2114.000,2121.000,2104.000,2061.000,2027.000,1994.000,1987.000,1969.000
3849.829,2435.000,2377.000,2346.000,2307.000,2296.000,2311.000,2208.000,2235.000,2203.000,2229.000