File: Raman/2022_11_26/Data/2022_11_26_Nylon6_532nm_Pol_1mW_750mm_600gv_0wn_iDus_100s_10accum_Pos1.csv
-1054.088,671.000,665.000,663.000,660.000,656.000,668.000,665.000,665.000,667.000,666.000
-1032.397,672.000,669.000,663.000,667.000,660.000,665.000,669.000,670.000,670.000,663.000
-1010.751,669.000,665.000,672.000,667.000,662.000,666.000,659.000,669.000,660.000,663.000
-989.154,667.000,670.000,659.000,660.000,661.000,661.000,662.000,667.000,670.000,665.000
-967.603,672.000,665.000,666.000,660.000,663.000,671.000,654.000,666.000,663.000,662.000
-946.100,668.000,668.000,666.000,674.000,674.000,668.000,670.000,667.000,2017.000,663.000
-924.643,679.000,661.000,669.000,668.000,668.000,676.000,662.000,672.000,660.000,663.000
-903.233,682.000,667.000,667.000,673.000,665.000,665.000,661.000,663.000,661.000,669.000
-881.869,681.000,667.000,669.000,661.000,661.000,667.000,662.000,667.000,671.000,663.000
-860.552,673.000,677.000,665.000,662.000,665.000,679.000,669.000,665.000,659.000,664.000
-839.280,669.000,676.000,669.000,672.000,666.000,662.000,664.000,663.000,666.000,663.000
-818.055,671.000,673.000,669.000,673.000,665.000,678.000,667.000,665.000,663.000,671.000
-796.875,684.000,680.000,669.000,667.000,677.000,668.000,668.000,670.000,672.000,670.000
-775.742,672.000,676.000,675.000,666.000,667.000,670.000,672.000,666.000,680.000,664.000
-754.653,676.000,676.000,672.000,671.000,673.000,675.000,666.000,675.000,672.000,665.000
-733.610,676.000,685.000,679.000,669.000,681.000,673.000,671.000,667.000,673.000,674.000
-712.612,675.000,660.000,673.000,674.000,664.000,667.000,677.000,665.000,669.000,663.000
-691.659,678.000,681.000,672.000,672.000,675.000,671.000,669.000,664.000,660.000,671.000
-670.753,679.000,679.000,682.000,674.000,675.000,669.000,670.000,675.000,681.000,675.000
-649.889,686.000,673.000,686.000,681.000,668.000,673.000,671.000,671.000,677.000,680.000
-629.071,685.000,673.000,675.000,673.000,674.000,677.000,676.000,664.000,677.000,664.000
-608.297,691.000,680.000,675.000,672.000,680.000,681.000,677.000,677.000,673.000,674.000
-587.569,691.000,686.000,677.000,683.000,687.000,679.000,672.000,669.000,677.000,668.000
-566.883,691.000,686.000,686.000,688.000,685.000,682.000,683.000,682.000,684.000,680.000
-546.242,702.000,683.000,680.000,682.000,682.000,684.000,681.000,681.000,681.000,675.000
-525.644,717.000,684.000,1234.000,691.000,678.000,684.000,679.000,694.000,689.000,679.000
-505.093,701.000,689.000,683.000,684.000,685.000,675.000,678.000,674.000,684.000,683.000
-484.583,716.000,693.000,698.000,694.000,679.000,682.000,686.000,669.000,675.000,678.000
-464.116,706.000,696.000,699.000,688.000,688.000,693.000,697.000,686.000,695.000,684.000
-443.693,710.000,698.000,699.000,678.000,688.000,684.000,677.000,681.000,679.000,685.000
-423.316,719.000,703.000,699.000,686.000,691.000,697.000,685.000,686.000,697.000,695.000
-402.979,713.000,700.000,695.000,694.000,681.000,694.000,695.000,687.000,678.000,682.000
-382.685,723.000,703.000,711.000,1206.000,706.000,694.000,681.000,695.000,694.000,688.000
-362.434,740.000,717.000,714.000,706.000,722.000,691.000,695.000,702.000,703.000,706.000
-342.229,739.000,719.000,707.000,713.000,700.000,710.000,714.000,711.000,706.000,702.000
-322.063,744.000,720.000,737.000,731.000,723.000,711.000,725.000,721.000,716.000,719.000
-301.940,747.000,740.000,752.000,750.000,730.000,729.000,731.000,738.000,725.000,724.000
-281.859,791.000,778.000,757.000,767.000,753.000,746.000,757.000,752.000,750.000,751.000
-261.823,797.000,772.000,766.000,772.000,766.000,766.000,759.000,753.000,769.000,764.000
-241.826,827.000,809.000,815.000,787.000,801.000,801.000,799.000,767.000,771.000,798.000
-221.871,861.000,841.000,841.000,822.000,814.000,825.000,838.000,831.000,821.000,815.000
-201.959,933.000,884.000,879.000,864.000,878.000,859.000,868.000,863.000,868.000,866.000
-182.090,983.000,956.000,961.000,947.000,928.000,958.000,951.000,944.000,931.000,919.000
-162.260,1127.000,1101.000,1073.000,1056.000,1096.000,1042.000,1063.000,1052.000,1047.000,1070.000
-142.472,1319.000,1340.000,1315.000,1292.000,1265.000,1311.000,1291.000,1306.000,1276.000,1286.000
-122.724,1832.000,1811.000,1778.000,1809.000,1781.000,1760.000,1769.000,1740.000,1749.000,1754.000
-103.021,3567.000,3504.000,3539.000,3570.000,3519.000,3530.000,3538.000,3578.000,3515.000,3549.000
-83.356,4090.000,4036.000,4018.000,3939.000,4027.000,3934.000,4027.000,4010.000,3988.000,4061.000
-63.732,4611.000,4598.000,4576.000,4588.000,4560.000,4519.000,4553.000,4528.000,4550.000,4526.000
-44.149,5321.000,5247.000,5328.000,5217.000,5220.000,5337.000,5266.000,5287.000,5237.000,5329.000
-24.608,6052.000,6064.000,6118.000,6033.000,5985.000,6040.000,5998.000,5942.000,5966.000,6063.000
-5.106,7768.000,7640.000,7752.000,7660.000,7632.000,7691.000,7711.000,7758.000,7613.000,7701.000
14.356,8842.000,8822.000,8885.000,8876.000,8739.000,8865.000,8784.000,8956.000,8875.000,8886.000
33.777,7003.000,6902.000,6916.000,6923.000,6910.000,6931.000,6903.000,6931.000,6830.000,6875.000
53.157,6672.000,6711.000,6703.000,6748.000,6640.000,6690.000,6623.000,6706.000,6610.000,6614.000
72.498,6222.000,6163.000,6227.000,6106.000,6076.000,6102.000,6039.000,6139.000,5990.000,6071.000
91.800,5570.000,5496.000,5592.000,5557.000,5452.000,5565.000,5488.000,5504.000,5467.000,5456.000
111.061,5783.000,5849.000,5756.000,5739.000,5762.000,5705.000,5802.000,5745.000,5769.000,5781.000
130.281,3061.000,2963.000,2972.000,2910.000,2941.000,2864.000,2863.000,2918.000,2925.000,2961.000
149.464,2012.000,2006.000,1927.000,1977.000,2008.000,1946.000,1945.000,1995.000,1926.000,1944.000
168.607,1668.000,1641.000,1620.000,1629.000,1641.000,1597.000,1601.000,1566.000,1597.000,1591.000
187.711,1460.000,1398.000,1406.000,1403.000,1403.000,1363.000,1346.000,1371.000,1374.000,1386.000
206.774,1293.000,1248.000,1247.000,1238.000,1215.000,1239.000,1217.000,1194.000,1232.000,1196.000
225.800,1240.000,1220.000,1192.000,1190.000,1209.000,1151.000,1153.000,1159.000,1164.000,1153.000
244.787,1183.000,1111.000,1124.000,1104.000,1096.000,1091.000,1094.000,1089.000,1084.000,1054.000
263.735,1107.000,1058.000,1037.000,1018.000,1016.000,1022.000,996.000,997.000,999.000,1002.000
282.643,1071.000,1049.000,1020.000,984.000,991.000,996.000,993.000,993.000,971.000,1001.000
301.513,1065.000,1035.000,1005.000,976.000,989.000,988.000,957.000,963.000,963.000,960.000
320.346,1017.000,970.000,934.000,931.000,924.000,1207.000,913.000,920.000,896.000,890.000
339.140,1015.000,952.000,944.000,917.000,927.000,912.000,933.000,919.000,901.000,897.000
357.894,990.000,931.000,918.000,906.000,898.000,883.000,893.000,875.000,884.000,872.000
376.612,987.000,914.000,891.000,881.000,856.000,884.000,870.000,861.000,863.000,867.000
395.292,941.000,891.000,875.000,849.000,834.000,844.000,860.000,849.000,860.000,837.000
413.934,928.000,877.000,875.000,851.000,829.000,833.000,836.000,832.000,831.000,817.000
432.536,973.000,907.000,878.000,856.000,857.000,863.000,856.000,853.000,843.000,851.000
451.103,944.000,875.000,854.000,839.000,834.000,833.000,822.000,804.000,818.000,807.000
469.633,933.000,861.000,834.000,821.000,816.000,820.000,804.000,822.000,813.000,799.000
488.124,937.000,861.000,848.000,839.000,838.000,832.000,820.000,809.000,809.000,813.000
506.577,932.000,892.000,866.000,863.000,836.000,843.000,845.000,840.000,817.000,831.000
524.994,971.000,904.000,892.000,885.000,841.000,857.000,841.000,843.000,842.000,836.000
543.375,980.000,931.000,926.000,880.000,899.000,871.000,861.000,872.000,884.000,874.000
561.718,933.000,865.000,835.000,821.000,831.000,820.000,819.000,807.000,793.000,1248.000
580.023,1054.000,973.000,942.000,946.000,931.000,945.000,938.000,915.000,918.000,929.000
598.293,1051.000,1002.000,949.000,963.000,933.000,916.000,940.000,926.000,918.000,931.000
616.526,1033.000,964.000,939.000,915.000,940.000,919.000,925.000,890.000,895.000,901.000
634.723,1020.000,957.000,920.000,906.000,907.000,906.000,884.000,908.000,881.000,890.000
652.881,970.000,928.000,898.000,883.000,865.000,879.000,1042.000,867.000,854.000,858.000
671.005,974.000,918.000,901.000,872.000,872.000,859.000,838.000,842.000,841.000,844.000
689.093,993.000,928.000,885.000,891.000,894.000,891.000,867.000,881.000,880.000,866.000
707.145,1035.000,943.000,940.000,929.000,925.000,916.000,901.000,897.000,878.000,887.000
725.159,1058.000,978.000,945.000,929.000,920.000,920.000,907.000,908.000,907.000,907.000
743.139,1061.000,993.000,971.000,975.000,958.000,945.000,950.000,940.000,937.000,928.000
761.084,1072.000,993.000,981.000,984.000,967.000,975.000,946.000,924.000,936.000,940.000
778.992,1078.000,1004.000,970.000,983.000,946.000,956.000,965.000,946.000,937.000,937.000
796.864,1089.000,1004.000,997.000,966.000,979.000,938.000,947.000,952.000,940.000,952.000
814.701,1111.000,1046.000,1019.000,1022.000,1006.000,997.000,992.000,979.000,985.000,983.000
832.504,1224.000,1155.000,1118.000,1087.000,1084.000,1096.000,1085.000,1073.000,1086.000,1060.000
850.271,1255.000,1163.000,1177.000,1132.000,1139.000,1123.000,1139.000,1128.000,1101.000,1133.000
868.001,1262.000,1219.000,1178.000,1180.000,1160.000,1156.000,1149.000,1134.000,1126.000,1123.000
885.698,1376.000,1330.000,1297.000,1312.000,1258.000,1247.000,1225.000,1253.000,1230.000,1247.000
903.360,1428.000,1317.000,1325.000,1390.000,1315.000,1310.000,1271.000,1277.000,1292.000,1278.000
920.988,1662.000,1541.000,1584.000,1513.000,1540.000,1540.000,1495.000,1524.000,1503.000,1514.000
938.579,1793.000,1745.000,1752.000,1728.000,1703.000,1654.000,1673.000,1642.000,1652.000,1695.000
943.850,1815.000,1713.000,1696.000,1674.000,1686.000,1660.000,1647.000,1632.000,1640.000,1677.000