File: Raman/2022_11_26/Data/2022_11_26_Hagfish_Film_Unstreched_532nm_Pol_1mW_750mm_600gv_1200wn_iDus_100s_10accum_Pos1.csv
282.050,5272.000,2910.000,2345.000,2048.000,1861.000,1737.000,1618.000,1524.000,1452.000,1362.000
302.749,5516.000,3069.000,2395.000,2055.000,1879.000,1744.000,1653.000,1572.000,1491.000,1432.000
323.404,5489.000,3058.000,2421.000,2094.000,1877.000,1748.000,1637.000,1591.000,1511.000,1434.000
344.011,5665.000,3111.000,2449.000,2137.000,1925.000,1788.000,1673.000,1619.000,1538.000,1450.000
364.574,5896.000,3183.000,2580.000,2239.000,1973.000,1811.000,1704.000,1628.000,1566.000,1465.000
385.089,6073.000,3311.000,2658.000,2257.000,2094.000,1850.000,1765.000,1629.000,1560.000,1489.000
405.560,6379.000,3456.000,2762.000,2324.000,2119.000,1914.000,1832.000,1718.000,1705.000,1525.000
425.984,6498.000,3444.000,2823.000,2364.000,2150.000,1932.000,1849.000,1721.000,1642.000,1565.000
446.363,6594.000,3510.000,2800.000,2356.000,2117.000,1978.000,1797.000,1761.000,1665.000,1587.000
466.698,6853.000,3621.000,2819.000,2414.000,2179.000,3175.000,1863.000,1775.000,1673.000,1655.000
486.987,7096.000,3751.000,2921.000,2505.000,2213.000,2034.000,1884.000,1809.000,1736.000,1650.000
507.232,7119.000,3834.000,2946.000,2567.000,2295.000,2105.000,1950.000,1821.000,1748.000,1658.000
527.431,7145.000,3863.000,3015.000,2535.000,2262.000,2068.000,1948.000,1835.000,1794.000,1675.000
547.586,7852.000,3925.000,3005.000,2533.000,2275.000,2111.000,1959.000,1845.000,1777.000,1683.000
567.697,7734.000,4030.000,3103.000,2649.000,2434.000,2146.000,2002.000,1893.000,1835.000,1727.000
587.763,7892.000,4174.000,3238.000,2750.000,2416.000,2242.000,2031.000,1927.000,1840.000,1756.000
607.787,8063.000,4187.000,3314.000,2732.000,2495.000,2235.000,2118.000,2011.000,1881.000,1803.000
627.764,8159.000,4264.000,3259.000,2756.000,2464.000,2281.000,2119.000,1983.000,1873.000,1792.000
647.700,8305.000,4282.000,3363.000,2843.000,2502.000,2309.000,2143.000,2012.000,1911.000,1821.000
667.590,8642.000,4572.000,3454.000,2931.000,2562.000,2332.000,2216.000,2089.000,1952.000,1828.000
687.436,8800.000,4541.000,3507.000,2941.000,2707.000,2411.000,2189.000,2104.000,1936.000,1841.000
707.241,8928.000,4641.000,3478.000,2974.000,2637.000,2441.000,2221.000,2084.000,2026.000,1899.000
727.001,9092.000,4657.000,3670.000,3014.000,2689.000,2438.000,2301.000,2106.000,1977.000,1925.000
746.719,9449.000,4845.000,3750.000,3193.000,2695.000,2522.000,2337.000,2227.000,2077.000,2015.000
766.393,9707.000,4959.000,3723.000,3154.000,2800.000,2539.000,2397.000,2252.000,2146.000,1973.000
786.024,9616.000,4830.000,3740.000,3204.000,2797.000,2550.000,2367.000,2232.000,2119.000,1986.000
805.614,9983.000,4981.000,3822.000,3241.000,2870.000,2605.000,2394.000,2220.000,2123.000,1958.000
825.159,10045.000,5166.000,3930.000,3285.000,2941.000,2718.000,2449.000,2316.000,2187.000,2051.000
844.665,10129.000,5157.000,3961.000,3351.000,2915.000,2648.000,2462.000,2332.000,2207.000,2115.000
864.125,10199.000,5133.000,3916.000,3300.000,2949.000,2639.000,2471.000,2277.000,2206.000,2065.000
883.546,10676.000,5305.000,4031.000,3423.000,2997.000,2760.000,2532.000,2402.000,2231.000,2138.000
902.923,10640.000,5283.000,4091.000,3380.000,3022.000,2760.000,2532.000,2399.000,2216.000,2106.000
922.257,10555.000,5304.000,4071.000,3428.000,3050.000,2710.000,2505.000,2367.000,2262.000,2094.000
941.552,10846.000,5477.000,4184.000,3449.000,3057.000,2804.000,2583.000,2421.000,2259.000,2144.000
960.804,10969.000,5482.000,4114.000,3507.000,3127.000,2785.000,2592.000,2397.000,2313.000,2190.000
980.016,10961.000,5391.000,4155.000,3439.000,3034.000,2715.000,2561.000,2409.000,2299.000,2139.000
999.184,11355.000,5708.000,4365.000,3768.000,3277.000,2918.000,2763.000,2582.000,2503.000,2307.000
1018.312,11392.000,5605.000,4340.000,3615.000,3225.000,2898.000,2717.000,2482.000,2362.000,2192.000
1037.400,11435.000,5764.000,4425.000,3677.000,3197.000,2920.000,2676.000,2510.000,2380.000,2303.000
1056.446,11764.000,5859.000,4457.000,3669.000,3354.000,2939.000,2784.000,2616.000,2410.000,2277.000
1075.452,11833.000,5882.000,4452.000,3760.000,3270.000,2943.000,2785.000,2549.000,2464.000,2292.000
1094.416,11830.000,5794.000,4453.000,3710.000,3284.000,2938.000,2714.000,2563.000,2455.000,2351.000
1113.341,12157.000,6001.000,4559.000,3871.000,3335.000,3075.000,2792.000,2602.000,2492.000,2336.000
1132.224,11968.000,5910.000,4466.000,3753.000,3235.000,3005.000,2690.000,2603.000,2432.000,2295.000
1151.067,12061.000,6007.000,4554.000,3828.000,3341.000,3010.000,2813.000,2602.000,2443.000,2288.000
1169.872,12403.000,6286.000,4650.000,3863.000,3393.000,3070.000,2838.000,2642.000,2504.000,2410.000
1188.634,12418.000,6195.000,4587.000,3902.000,3390.000,3102.000,2883.000,2628.000,2523.000,2363.000
1207.359,12543.000,6166.000,4662.000,3926.000,3421.000,3181.000,2815.000,2673.000,2522.000,2400.000
1226.041,13050.000,6575.000,4942.000,4123.000,3581.000,3231.000,2995.000,2800.000,2726.000,2476.000
1244.686,12732.000,6357.000,4800.000,3986.000,3468.000,3140.000,2894.000,2686.000,2632.000,2454.000
1263.290,12454.000,6153.000,4706.000,3885.000,3405.000,3097.000,2842.000,2672.000,2532.000,2377.000
1281.854,12939.000,6427.000,4834.000,4000.000,3558.000,3150.000,2935.000,2744.000,2587.000,2446.000
1300.381,12941.000,6434.000,4816.000,4103.000,3535.000,3128.000,2946.000,2755.000,2647.000,2442.000
1318.867,12605.000,6301.000,4726.000,3964.000,3472.000,3114.000,2850.000,2686.000,2560.000,2375.000
1337.316,13014.000,6445.000,4827.000,4054.000,3526.000,3135.000,2911.000,2683.000,2598.000,2398.000
1355.724,13125.000,6432.000,4864.000,4084.000,3484.000,3115.000,2874.000,2746.000,2581.000,2410.000
1374.093,13419.000,6616.000,4866.000,4075.000,3579.000,3253.000,2984.000,2791.000,2633.000,2474.000
1392.425,13321.000,6436.000,4919.000,4075.000,3606.000,3227.000,3013.000,2777.000,2635.000,2419.000
1410.717,13069.000,6526.000,4848.000,4022.000,3508.000,3157.000,2931.000,2736.000,2590.000,2426.000
1428.973,13278.000,6664.000,4948.000,4077.000,3649.000,3290.000,3000.000,2841.000,2661.000,2451.000
1447.188,13661.000,6633.000,4977.000,4212.000,3629.000,3299.000,3023.000,2785.000,2666.000,2536.000
1465.367,13776.000,6775.000,5094.000,4188.000,3680.000,3302.000,2975.000,2816.000,2688.000,2529.000
1483.506,13869.000,6678.000,5075.000,4138.000,3595.000,3289.000,3026.000,2813.000,2622.000,2469.000
1501.607,13802.000,6727.000,5059.000,4110.000,3687.000,3285.000,3003.000,2742.000,2605.000,2462.000
1519.672,14317.000,6970.000,5160.000,4236.000,3765.000,3368.000,3110.000,2859.000,2700.000,2560.000
1537.698,14178.000,6867.000,5191.000,4250.000,3712.000,3314.000,3019.000,2869.000,2642.000,2525.000
1555.688,14345.000,7082.000,5211.000,4332.000,3715.000,3391.000,3065.000,2902.000,2733.000,2523.000
1573.638,14237.000,6884.000,5215.000,4313.000,5671.000,3385.000,3047.000,2879.000,2704.000,2511.000
1591.553,14423.000,7131.000,5243.000,4400.000,3848.000,3387.000,3126.000,2857.000,2763.000,2579.000
1609.429,14486.000,7048.000,5258.000,4442.000,3844.000,3481.000,3147.000,2917.000,2803.000,2659.000
1627.268,14740.000,7048.000,5259.000,4324.000,3815.000,3416.000,3139.000,2930.000,2827.000,2606.000
1645.072,14918.000,7229.000,5455.000,4523.000,3989.000,3616.000,3260.000,3017.000,2887.000,2681.000
1662.837,14773.000,7308.000,5557.000,4577.000,4018.000,3591.000,3356.000,3135.000,2924.000,2824.000
1680.567,14827.000,7194.000,5400.000,4463.000,3882.000,3483.000,3183.000,3020.000,2785.000,2636.000
1698.259,14557.000,7018.000,5265.000,4307.000,3737.000,3332.000,3069.000,2956.000,2700.000,2612.000
1715.914,14668.000,7100.000,5299.000,4415.000,3773.000,3388.000,3159.000,2866.000,2944.000,2549.000
1733.534,14704.000,7053.000,5215.000,4330.000,3752.000,3381.000,3109.000,2908.000,2712.000,2550.000
1751.116,14919.000,7104.000,5275.000,4384.000,3804.000,3429.000,3094.000,2908.000,2709.000,2611.000
1768.664,15158.000,7310.000,5462.000,4417.000,3917.000,3480.000,3192.000,2995.000,2799.000,2641.000
1786.174,15281.000,7336.000,5424.000,4478.000,3873.000,3485.000,3197.000,2941.000,2759.000,2629.000
1803.649,15293.000,7325.000,5468.000,4449.000,3963.000,3522.000,3188.000,2954.000,2760.000,2599.000
1821.089,15506.000,7461.000,5527.000,4528.000,3975.000,3490.000,3223.000,3040.000,2913.000,2648.000
1838.491,15753.000,7500.000,5622.000,4646.000,4011.000,3609.000,3231.000,3016.000,2907.000,2681.000
1855.860,15333.000,7474.000,5517.000,4565.000,3972.000,3508.000,3217.000,3022.000,2846.000,2631.000
1873.191,15444.000,7372.000,5524.000,4508.000,3984.000,3565.000,3241.000,3049.000,2836.000,2668.000
1890.489,15417.000,7360.000,5550.000,4569.000,3987.000,3584.000,3232.000,2945.000,2899.000,2689.000
1907.749,15643.000,7536.000,5551.000,4636.000,4042.000,3595.000,3349.000,3049.000,2935.000,2717.000
1924.974,15474.000,7414.000,5491.000,4529.000,3995.000,3594.000,3345.000,3006.000,2878.000,2708.000
1942.166,15729.000,7551.000,5720.000,4725.000,4053.000,3693.000,3323.000,3115.000,2944.000,2804.000
1959.322,15821.000,7728.000,5702.000,4717.000,4077.000,3635.000,3453.000,3130.000,2963.000,2779.000
1976.444,16190.000,7884.000,5797.000,4807.000,4268.000,3729.000,3488.000,3271.000,3121.000,2897.000
1993.529,16245.000,7907.000,5914.000,4927.000,4257.000,3883.000,3571.000,3332.000,3096.000,2950.000
2010.582,16459.000,8018.000,6102.000,5035.000,4407.000,3942.000,3693.000,3442.000,3257.000,2999.000
2027.598,16533.000,8288.000,6271.000,5272.000,4669.000,4200.000,3838.000,3563.000,3428.000,3250.000