File: Raman/2022_11_26/Data/2022_11_26_Hagfish_Film_Unstreched_532nm_Pol_6mW_750mm_600gv_1200wn_iDus_100s_10accum_Pos1.csv
282.050,1893.000,1766.000,1749.000,1699.000,1623.000,1605.000,1561.000,1567.000,1531.000,1476.000
302.749,1900.000,1762.000,1660.000,1593.000,1601.000,1591.000,1530.000,1519.000,1490.000,1471.000
323.404,1835.000,1691.000,1639.000,1626.000,1551.000,1517.000,1490.000,1491.000,1460.000,1402.000
344.011,1805.000,1723.000,1647.000,1599.000,1554.000,1532.000,1491.000,1477.000,1476.000,1429.000
364.574,1867.000,1744.000,1671.000,1587.000,1565.000,1549.000,1530.000,1493.000,1462.000,1448.000
385.089,1874.000,1761.000,1686.000,1616.000,1564.000,1530.000,1529.000,1471.000,1448.000,1421.000
405.560,1953.000,1791.000,1721.000,1685.000,1631.000,1592.000,1526.000,1555.000,1515.000,1453.000
425.984,1980.000,1814.000,1769.000,1700.000,1648.000,1604.000,1593.000,1530.000,1531.000,1510.000
446.363,1994.000,1833.000,1753.000,1695.000,1676.000,1632.000,1593.000,1592.000,1511.000,1470.000
466.698,2057.000,1869.000,1831.000,1721.000,1666.000,1647.000,1602.000,1569.000,1551.000,1546.000
486.987,2060.000,1904.000,1887.000,1782.000,1739.000,1649.000,1625.000,1585.000,1578.000,1536.000
507.232,2043.000,1942.000,1846.000,1787.000,1729.000,1697.000,1657.000,1635.000,1624.000,1555.000
527.431,2127.000,1962.000,1889.000,1775.000,1763.000,1699.000,1626.000,1636.000,1597.000,1572.000
547.586,2131.000,1988.000,1874.000,1821.000,1751.000,1733.000,1686.000,1645.000,1690.000,1599.000
567.697,2151.000,2007.000,1884.000,1840.000,1779.000,1715.000,1726.000,1699.000,1687.000,1646.000
587.763,2262.000,2017.000,2007.000,1940.000,1851.000,1806.000,1710.000,1725.000,1708.000,1683.000
607.787,2271.000,2080.000,1943.000,1871.000,1845.000,1782.000,1763.000,1755.000,1677.000,1646.000
627.764,2268.000,2093.000,1934.000,1874.000,1855.000,1826.000,1774.000,1773.000,1715.000,1649.000
647.700,2308.000,2085.000,2066.000,1927.000,1898.000,1938.000,1790.000,1783.000,1771.000,1720.000
667.590,2346.000,2175.000,2038.000,1963.000,1897.000,1877.000,1769.000,1821.000,1756.000,1728.000
687.436,2355.000,2156.000,2078.000,1999.000,1924.000,1894.000,1827.000,1811.000,1772.000,1747.000
707.241,2394.000,2183.000,2107.000,2042.000,1979.000,1903.000,1894.000,1855.000,1808.000,1767.000
727.001,2426.000,2238.000,2142.000,2049.000,1990.000,1973.000,1927.000,1859.000,1839.000,1783.000
746.719,2565.000,2366.000,2246.000,2161.000,2142.000,2020.000,2004.000,1972.000,1938.000,1828.000
766.393,2631.000,2323.000,2233.000,2167.000,2090.000,1992.000,1965.000,1910.000,1883.000,1825.000
786.024,2550.000,2280.000,2237.000,2143.000,2059.000,2032.000,1955.000,1903.000,1933.000,1844.000
805.614,2558.000,2363.000,2288.000,2168.000,2119.000,2037.000,1997.000,1913.000,1925.000,1883.000
825.159,2840.000,2579.000,2474.000,2329.000,2350.000,2258.000,2256.000,2175.000,2182.000,2077.000
844.665,2790.000,2608.000,2535.000,2377.000,2320.000,2249.000,2180.000,2144.000,2106.000,2090.000
864.125,2762.000,2459.000,2359.000,2325.000,2234.000,2169.000,2113.000,2110.000,2082.000,1986.000
883.546,2820.000,2635.000,2419.000,2406.000,2332.000,2257.000,2193.000,2193.000,2136.000,2066.000
902.923,2841.000,2623.000,2520.000,2401.000,2370.000,2234.000,2246.000,2228.000,2195.000,2076.000
922.257,2858.000,2571.000,2456.000,2371.000,2319.000,2290.000,2221.000,2209.000,2175.000,2119.000
941.552,2925.000,2638.000,2539.000,2476.000,2393.000,2323.000,2267.000,2232.000,2176.000,2132.000
960.804,2930.000,2661.000,2550.000,2449.000,2340.000,2276.000,2219.000,2182.000,2175.000,2165.000
980.016,2932.000,2692.000,2536.000,2418.000,2370.000,2340.000,2254.000,2207.000,2213.000,2132.000
999.184,3635.000,3368.000,3317.000,3159.000,3025.000,2993.000,2934.000,2979.000,2848.000,2794.000
1018.312,3079.000,2875.000,2710.000,2670.000,2550.000,2546.000,2423.000,2361.000,2389.000,2329.000
1037.400,3047.000,2850.000,2721.000,2649.000,2563.000,2456.000,2462.000,2409.000,2361.000,2305.000
1056.446,3119.000,2900.000,2735.000,2643.000,2544.000,2495.000,2449.000,2431.000,2394.000,2285.000
1075.452,3156.000,2839.000,2780.000,2683.000,2522.000,2495.000,2464.000,2459.000,2378.000,2325.000
1094.416,3029.000,2831.000,2726.000,2647.000,2506.000,2480.000,2443.000,2358.000,2304.000,2275.000
1113.341,3110.000,2895.000,2731.000,2655.000,2567.000,2482.000,2464.000,2359.000,2358.000,2281.000
1132.224,3033.000,2735.000,2626.000,2585.000,2425.000,2368.000,2323.000,2300.000,2206.000,2170.000
1151.067,3056.000,2815.000,2661.000,2603.000,2501.000,2458.000,2388.000,2351.000,2341.000,2265.000
1169.872,3133.000,2801.000,2728.000,2594.000,2478.000,2492.000,2373.000,2422.000,2315.000,2322.000
1188.634,3121.000,2842.000,2698.000,2588.000,2506.000,2457.000,2352.000,2323.000,2305.000,2243.000
1207.359,3269.000,2945.000,2820.000,2788.000,2675.000,2621.000,2603.000,2520.000,2443.000,2375.000
1226.041,3659.000,3331.000,3202.000,3096.000,3006.000,2979.000,2858.000,2892.000,2774.000,2689.000
1244.686,3467.000,3193.000,3078.000,2878.000,2853.000,2785.000,2752.000,2681.000,2674.000,2602.000
1263.290,3276.000,3018.000,2810.000,2758.000,2687.000,2664.000,2626.000,2517.000,2468.000,2461.000
1281.854,3329.000,3007.000,2871.000,2733.000,2680.000,2571.000,2582.000,2519.000,2457.000,2454.000
1300.381,3328.000,3014.000,2861.000,2764.000,2695.000,2617.000,2526.000,2545.000,2455.000,2339.000
1318.867,3222.000,2927.000,2807.000,2719.000,2640.000,2555.000,2534.000,2416.000,2392.000,2415.000
1337.316,3387.000,3131.000,2886.000,2879.000,2763.000,2733.000,2674.000,2596.000,2522.000,2485.000
1355.724,3198.000,2938.000,2779.000,2686.000,2626.000,2502.000,2511.000,2421.000,2364.000,2328.000
1374.093,3241.000,2854.000,2806.000,2714.000,2624.000,2503.000,2462.000,2380.000,2365.000,2292.000
1392.425,3185.000,2945.000,2862.000,2676.000,2650.000,2563.000,2483.000,2414.000,2360.000,2379.000
1410.717,3116.000,2866.000,2704.000,2584.000,2549.000,2467.000,2470.000,2335.000,2343.000,2235.000
1428.973,3266.000,2975.000,2908.000,2760.000,2654.000,2591.000,2563.000,2455.000,2489.000,2377.000
1447.188,3404.000,3062.000,3019.000,2887.000,2728.000,2730.000,2632.000,2671.000,2540.000,2484.000
1465.367,3252.000,2940.000,2872.000,2720.000,2629.000,2566.000,2546.000,2494.000,2364.000,2331.000
1483.506,3090.000,2817.000,2687.000,2582.000,2448.000,2421.000,2330.000,2327.000,2230.000,2176.000
1501.607,3041.000,2702.000,2635.000,2503.000,2407.000,2347.000,2391.000,2220.000,2184.000,2127.000
1519.672,3185.000,2836.000,2647.000,2563.000,2473.000,2389.000,2347.000,2283.000,2236.000,2131.000
1537.698,3137.000,2878.000,2728.000,2614.000,2579.000,2420.000,2405.000,2351.000,2303.000,2198.000
1555.688,3221.000,2901.000,2717.000,2625.000,2532.000,2461.000,2471.000,2354.000,2354.000,2261.000
1573.638,3183.000,2857.000,2767.000,2629.000,2550.000,2461.000,2367.000,2315.000,2322.000,2266.000
1591.553,3222.000,2944.000,2703.000,2649.000,2595.000,2503.000,2417.000,2385.000,2356.000,2264.000
1609.429,3350.000,3042.000,2872.000,2780.000,2700.000,2608.000,2523.000,2460.000,2455.000,2304.000
1627.268,3312.000,3023.000,2889.000,2802.000,2679.000,2619.000,2536.000,2479.000,2457.000,2391.000
1645.072,3641.000,3386.000,3217.000,3098.000,2957.000,2929.000,2882.000,2810.000,2767.000,2711.000
1662.837,4217.000,3873.000,3777.000,3610.000,3524.000,3434.000,3403.000,3388.000,3248.000,3264.000
1680.567,3446.000,3139.000,2983.000,2895.000,2791.000,2683.000,2708.000,2577.000,2563.000,2477.000
1698.259,3158.000,2900.000,2659.000,2608.000,2481.000,2427.000,2369.000,2327.000,2226.000,2185.000
1715.914,3125.000,2770.000,2731.000,2551.000,2466.000,2380.000,2313.000,2228.000,2184.000,2136.000
1733.534,3068.000,2752.000,2672.000,2522.000,2418.000,2297.000,2244.000,2212.000,2169.000,2051.000
1751.116,3112.000,2728.000,2642.000,2572.000,2426.000,2375.000,2300.000,2226.000,2168.000,2088.000
1768.664,3098.000,2790.000,2637.000,2544.000,2469.000,2343.000,2339.000,2222.000,2196.000,2128.000
1786.174,3093.000,2796.000,2649.000,2540.000,2475.000,2342.000,2289.000,2239.000,2197.000,2163.000
1803.649,3127.000,2840.000,2692.000,2562.000,2463.000,2419.000,2306.000,2260.000,2190.000,2082.000
1821.089,3119.000,2813.000,2651.000,2535.000,2495.000,2372.000,2376.000,2291.000,2198.000,2164.000
1838.491,3218.000,2865.000,2693.000,2589.000,2516.000,2399.000,2366.000,2268.000,2232.000,2183.000
1855.860,3165.000,2855.000,2704.000,2551.000,2501.000,2388.000,2332.000,2288.000,2254.000,2151.000
1873.191,3195.000,2805.000,2656.000,2578.000,2479.000,2360.000,2348.000,2277.000,2230.000,2170.000
1890.489,3105.000,2833.000,2683.000,2623.000,2481.000,2387.000,2354.000,2302.000,2239.000,2179.000
1907.749,3186.000,2865.000,2697.000,2637.000,2516.000,2444.000,2362.000,2315.000,2260.000,2220.000
1924.974,3175.000,2828.000,2720.000,2601.000,2522.000,2447.000,2383.000,2304.000,2271.000,2175.000
1942.166,3254.000,2898.000,2769.000,2695.000,2562.000,2443.000,2456.000,2373.000,2303.000,2265.000
1959.322,3257.000,2989.000,2782.000,2739.000,2619.000,2514.000,2389.000,2355.000,2319.000,2257.000
1976.444,3417.000,3064.000,2917.000,2757.000,2639.000,2603.000,2514.000,2503.000,2425.000,2306.000
1993.529,3382.000,3061.000,2933.000,2809.000,2699.000,2607.000,2561.000,2495.000,2483.000,2373.000
2010.582,3550.000,3209.000,3040.000,2923.000,2879.000,2730.000,2657.000,2638.000,2599.000,2465.000
2027.598,3700.000,3414.000,3231.000,3129.000,3021.000,2962.000,2856.000,2815.000,2752.000,2741.000