File: Raman/2022_11_26/Data/2022_11_26_Hagfish_Film_Unstreched_532nm_Pol_6mW_750mm_600gv_1200wn_iDus_100s_10accum_Pos2.csv
282.050,5689.000,3563.000,3037.000,2648.000,2520.000,2355.000,2250.000,2194.000,2135.000,1993.000
302.749,5788.000,3543.000,2979.000,2621.000,2467.000,2301.000,2175.000,2087.000,1973.000,1950.000
323.404,5836.000,3531.000,2916.000,2604.000,2398.000,2290.000,2149.000,2019.000,1961.000,1888.000
344.011,5951.000,3579.000,2919.000,2650.000,2415.000,2303.000,2180.000,2038.000,1975.000,1880.000
364.574,5980.000,3603.000,2943.000,2573.000,2417.000,2303.000,2093.000,2023.000,1896.000,1883.000
385.089,6159.000,3717.000,3013.000,2694.000,2465.000,2288.000,2143.000,2071.000,1965.000,1887.000
405.560,6383.000,3827.000,3195.000,2746.000,2582.000,2382.000,2272.000,2128.000,2009.000,1965.000
425.984,6606.000,3838.000,3199.000,2815.000,2545.000,2387.000,2250.000,2092.000,2038.000,1971.000
446.363,6570.000,3947.000,3251.000,2803.000,2637.000,2347.000,2234.000,2116.000,2023.000,1997.000
466.698,6847.000,4919.000,3309.000,2904.000,2659.000,2472.000,2301.000,2183.000,2022.000,2043.000
486.987,7072.000,4193.000,3368.000,2982.000,2802.000,2592.000,2396.000,2259.000,2166.000,2086.000
507.232,7416.000,4263.000,3461.000,3056.000,2830.000,2613.000,2370.000,2268.000,2164.000,2118.000
527.431,7270.000,4319.000,3527.000,3118.000,2837.000,2667.000,2437.000,2382.000,2242.000,2146.000
547.586,7330.000,4385.000,3530.000,3113.000,2815.000,2692.000,2429.000,2349.000,2247.000,2221.000
567.697,7603.000,4442.000,3626.000,3189.000,2827.000,2713.000,2523.000,2421.000,2243.000,2219.000
587.763,7793.000,4464.000,3686.000,3179.000,2944.000,2765.000,2547.000,2411.000,2321.000,2208.000
607.787,7963.000,4564.000,3735.000,3353.000,2943.000,2792.000,2505.000,2378.000,2289.000,2246.000
627.764,8038.000,4671.000,3713.000,3268.000,2988.000,2806.000,2601.000,2466.000,2369.000,2270.000
647.700,8396.000,4861.000,3929.000,3416.000,3169.000,2909.000,2735.000,2499.000,2416.000,2404.000
667.590,8682.000,5029.000,4072.000,3555.000,3159.000,2967.000,2727.000,2564.000,2481.000,2353.000
687.436,8700.000,5001.000,4089.000,3551.000,3225.000,2969.000,2796.000,2614.000,2496.000,2406.000
707.241,8930.000,5079.000,4202.000,3678.000,3322.000,3046.000,2832.000,2665.000,2629.000,2472.000
727.001,8946.000,5245.000,4207.000,3757.000,3367.000,3134.000,2920.000,2794.000,2685.000,2540.000
746.719,9394.000,5499.000,4413.000,3881.000,3565.000,3311.000,3133.000,2964.000,2798.000,2665.000
766.393,9396.000,5569.000,4492.000,3930.000,3539.000,3361.000,3123.000,2960.000,2791.000,2709.000
786.024,9386.000,5442.000,4441.000,3854.000,3474.000,3283.000,3057.000,2896.000,2729.000,2658.000
805.614,9683.000,5546.000,4551.000,3999.000,3627.000,3346.000,3136.000,2942.000,2786.000,2681.000
825.159,10214.000,6200.000,5012.000,4472.000,4049.000,3795.000,3570.000,3387.000,3265.000,3153.000
844.665,10192.000,5933.000,4967.000,4496.000,4465.000,3741.000,3483.000,3352.000,3186.000,3112.000
864.125,10090.000,5887.000,4863.000,4218.000,3962.000,3597.000,3367.000,3219.000,3026.000,2969.000
883.546,10550.000,6165.000,4988.000,4309.000,4037.000,3820.000,3580.000,3305.000,3182.000,3105.000
902.923,10512.000,6226.000,5099.000,4453.000,4119.000,3802.000,3544.000,3370.000,3223.000,3108.000
922.257,10440.000,6035.000,4998.000,4371.000,4052.000,3764.000,3524.000,3340.000,3215.000,3064.000
941.552,10738.000,6246.000,5246.000,4527.000,4178.000,3875.000,3623.000,3437.000,3251.000,3176.000
960.804,10815.000,6333.000,5235.000,4615.000,4174.000,3861.000,3563.000,3420.000,3237.000,3222.000
980.016,10793.000,6307.000,5199.000,4579.000,4204.000,3859.000,3614.000,3408.000,3371.000,3241.000
999.184,12216.000,7764.000,6523.000,5960.000,5641.000,5293.000,4956.000,4781.000,4579.000,4547.000
1018.312,11333.000,6817.000,5677.000,4913.000,4556.000,4253.000,3975.000,3798.000,3704.000,3482.000
1037.400,11317.000,6711.000,5468.000,4808.000,4524.000,4210.000,3869.000,3652.000,3578.000,3469.000
1056.446,11505.000,6755.000,5574.000,4880.000,4538.000,4241.000,3983.000,3733.000,3542.000,3540.000
1075.452,11665.000,6969.000,5699.000,4989.000,4523.000,4280.000,3989.000,3837.000,3617.000,3457.000
1094.416,11753.000,6845.000,5566.000,4852.000,4513.000,4127.000,3999.000,3775.000,3543.000,3439.000
1113.341,11787.000,6977.000,5667.000,5073.000,4575.000,4247.000,3941.000,3717.000,3516.000,3471.000
1132.224,11614.000,6660.000,5392.000,4737.000,4327.000,3984.000,3715.000,3503.000,3336.000,3204.000
1151.067,11675.000,6783.000,5576.000,4921.000,4419.000,4202.000,3849.000,3591.000,3514.000,3361.000
1169.872,12042.000,6971.000,5704.000,4999.000,5955.000,4142.000,3947.000,3695.000,3546.000,3395.000
1188.634,11906.000,6908.000,5632.000,4940.000,4491.000,4183.000,3857.000,3613.000,3528.000,3308.000
1207.359,12326.000,7236.000,6053.000,5328.000,4819.000,4545.000,4193.000,3925.000,3899.000,3705.000
1226.041,13460.000,8040.000,6739.000,6062.000,5591.000,5206.000,4894.000,4721.000,4640.000,4437.000
1244.686,13066.000,7746.000,7388.000,5814.000,5345.000,5027.000,4651.000,4435.000,4228.000,4139.000
1263.290,12437.000,7340.000,6075.000,5322.000,4850.000,4648.000,4278.000,4061.000,3890.000,3794.000
1281.854,12705.000,7463.000,6046.000,5363.000,4913.000,4646.000,4255.000,4095.000,3868.000,3816.000
1300.381,12663.000,7357.000,5993.000,5343.000,4779.000,4499.000,4214.000,3990.000,3822.000,3731.000
1318.867,12353.000,7274.000,5945.000,5252.000,4800.000,4506.000,4129.000,4004.000,3792.000,3671.000
1337.316,12721.000,7519.000,6163.000,5397.000,5035.000,4662.000,4372.000,4184.000,4017.000,3835.000
1355.724,12698.000,7281.000,5993.000,5242.000,4716.000,4435.000,4131.000,3883.000,3741.000,3558.000
1374.093,12785.000,7226.000,5961.000,5238.000,4699.000,4390.000,4103.000,3794.000,3667.000,3532.000
1392.425,12851.000,7483.000,6070.000,5368.000,4770.000,4450.000,4127.000,3891.000,3723.000,3630.000
1410.717,12602.000,7160.000,5838.000,5137.000,4595.000,4272.000,4013.000,3711.000,3575.000,3485.000
1428.973,13095.000,7501.000,6123.000,5311.000,4930.000,4453.000,4261.000,3990.000,3788.000,3687.000
1447.188,13305.000,7724.000,6310.000,5594.000,5139.000,4777.000,4430.000,4286.000,4000.000,3905.000
1465.367,13025.000,7516.000,6047.000,5306.000,4766.000,4353.000,4116.000,3894.000,3669.000,3593.000
1483.506,12736.000,7160.000,5719.000,4995.000,4467.000,4112.000,3813.000,3508.000,3404.000,3211.000
1501.607,12497.000,7010.000,5641.000,4812.000,4378.000,4016.000,3669.000,3415.000,3231.000,3110.000
1519.672,13054.000,7303.000,5846.000,5005.000,4513.000,4103.000,3793.000,3556.000,3414.000,3157.000
1537.698,13049.000,7400.000,6015.000,5066.000,4596.000,4287.000,3873.000,3587.000,3385.000,3367.000
1555.688,13397.000,7567.000,6037.000,5237.000,4635.000,4270.000,3931.000,3687.000,3534.000,3384.000
1573.638,13252.000,7428.000,5959.000,5117.000,4652.000,4267.000,3938.000,3648.000,3525.000,3362.000
1591.553,13439.000,7502.000,6031.000,5285.000,4699.000,4278.000,3910.000,3780.000,3531.000,3360.000
1609.429,13720.000,7717.000,6269.000,5467.000,4912.000,4527.000,4117.000,3904.000,3716.000,3580.000
1627.268,13561.000,7654.000,6238.000,5412.000,4879.000,4579.000,4141.000,3935.000,3779.000,3556.000
1645.072,14362.000,8413.000,6970.000,6095.000,5558.000,5132.000,4824.000,4622.000,4327.000,4105.000
1662.837,15382.000,9402.000,7965.000,7217.000,6623.000,6347.000,5928.000,5695.000,5510.000,5348.000
1680.567,13885.000,7882.000,6497.000,5644.000,5182.000,4698.000,4401.000,4152.000,3952.000,3792.000
1698.259,13227.000,7254.000,5812.000,5044.000,4499.000,4117.000,3734.000,3547.000,3307.000,3244.000
1715.914,13210.000,7275.000,5783.000,4945.000,4441.000,4055.000,3599.000,3422.000,3225.000,3091.000
1733.534,13036.000,7180.000,5666.000,4891.000,4321.000,3938.000,3596.000,3339.000,3226.000,2983.000
1751.116,13085.000,7155.000,5701.000,4835.000,4321.000,3940.000,3643.000,3265.000,3166.000,3022.000
1768.664,15163.000,7334.000,5723.000,4897.000,4415.000,3950.000,3620.000,3349.000,3162.000,3044.000
1786.174,13242.000,7330.000,5784.000,4860.000,4379.000,4002.000,3718.000,3380.000,3144.000,3030.000
1803.649,13591.000,7400.000,5754.000,4929.000,4421.000,3924.000,3658.000,3411.000,3173.000,3052.000
1821.089,13655.000,7383.000,5914.000,5065.000,4415.000,4073.000,3723.000,3379.000,3222.000,3095.000
1838.491,13787.000,7532.000,5973.000,5081.000,4442.000,4113.000,3669.000,3422.000,3290.000,3098.000
1855.860,13713.000,7477.000,5851.000,5058.000,4423.000,3992.000,3699.000,3381.000,3208.000,3071.000
1873.191,13497.000,7386.000,5921.000,4992.000,4449.000,4055.000,3672.000,3384.000,3188.000,3096.000
1890.489,13644.000,7413.000,5859.000,5004.000,4479.000,4037.000,3659.000,3379.000,3213.000,3091.000
1907.749,13539.000,7522.000,5900.000,5063.000,4521.000,4174.000,3728.000,3437.000,3250.000,3130.000
1924.974,13602.000,7245.000,5823.000,5039.000,4485.000,4088.000,3769.000,3433.000,3238.000,3076.000
1942.166,13988.000,7511.000,6109.000,5111.000,4609.000,4081.000,3770.000,3562.000,3317.000,3174.000
1959.322,13853.000,8267.000,6112.000,5183.000,4548.000,4179.000,3828.000,3526.000,3295.000,3190.000
1976.444,14417.000,7779.000,6134.000,5273.000,4724.000,4262.000,3887.000,3628.000,3484.000,3319.000
1993.529,14437.000,7862.000,6286.000,5311.000,4740.000,4342.000,3936.000,3674.000,3518.000,3359.000
2010.582,14635.000,7972.000,6371.000,5497.000,4926.000,4491.000,4069.000,3854.000,3609.000,3412.000
2027.598,14605.000,8138.000,6529.000,5654.000,5123.000,4676.000,4255.000,3995.000,3802.000,3658.000