File: XRD/2023_07_24_CBD_Liq_3_60_22min_pXRD.xy
3.00043 24135.0
3.19603 19178.0
3.39163 14728.0
3.58722 10995.0
3.78282 8160.0
3.97841 5890.0
4.17401 4326.0
4.3696 3180.0
4.5652 2548.0
4.7608 2466.0
4.95639 2467.0
5.15199 2655.0
5.34758 2915.0
5.54318 3137.0
5.73878 3524.0
5.93437 3866.0
6.12997 3913.0
6.32556 4143.0
6.52116 4565.0
6.71676 4803.0
6.91235 5004.0
7.10795 4997.0
7.30354 5307.0
7.49914 5387.0
7.69474 5557.0
7.89033 5476.0
8.08593 5346.0
8.28152 5425.0
8.47712 5296.0
8.67271 5505.0
8.86831 5250.0
9.06391 5180.0
9.2595 5079.0
9.4551 5014.0
9.65069 5123.0
9.84629 5137.0
10.0419 5002.0
10.2375 4976.0
10.4331 4937.0
10.6287 5036.0
10.8243 5037.0
11.0199 5257.0
11.2155 5335.0
11.4111 5311.0
11.6067 5418.0
11.8022 5638.0
11.9978 5916.0
12.1934 5977.0
12.389 6283.0
12.5846 6341.0
12.7802 6834.0
12.9758 6815.0
13.1714 7018.0
13.367 7299.0
13.5626 7511.0
13.7582 7852.0
13.9538 7819.0
14.1494 7963.0
14.345 8061.0
14.5406 8250.0
14.7362 8171.0
14.9318 8435.0
15.1274 8194.0
15.323 8267.0
15.5186 8578.0
15.7142 8223.0
15.9098 8517.0
16.1054 8334.0
16.301 8389.0
16.4966 8327.0
16.6921 8574.0
16.8877 8548.0
17.0833 8624.0
17.2789 8787.0
17.4745 8778.0
17.6701 8917.0
17.8657 8912.0
18.0613 8955.0
18.2569 9260.0
18.4525 9202.0
18.6481 9148.0
18.8437 9453.0
19.0393 9301.0
19.2349 9208.0
19.4305 9378.0
19.6261 9413.0
19.8217 9278.0
20.0173 9252.0
20.2129 9230.0
20.4085 9130.0
20.6041 8994.0
20.7997 8887.0
20.9953 8769.0
21.1909 8859.0
21.3864 8640.0
21.582 8451.0
21.7776 8165.0
21.9732 8124.0
22.1688 7737.0
22.3644 7616.0
22.56 7716.0
22.7556 7435.0
22.9512 7184.0
23.1468 6956.0
23.3424 6748.0
23.538 6499.0
23.7336 6483.0
23.9292 6334.0
24.1248 6030.0
24.3204 6021.0
24.516 5805.0
24.7116 5645.0
24.9072 5359.0
25.1028 5314.0
25.2984 5361.0
25.494 5181.0
25.6896 5026.0
25.8852 4751.0
26.0808 4644.0
26.2763 4557.0
26.4719 4473.0
26.6675 4398.0
26.8631 4305.0
27.0587 4201.0
27.2543 4202.0
27.4499 3991.0
27.6455 3973.0
27.8411 3619.0
28.0367 3853.0
28.2323 3734.0
28.4279 3696.0
28.6235 3525.0
28.8191 3541.0
29.0147 3433.0
29.2103 3309.0
29.4059 3251.0
29.6015 3206.0
29.7971 3163.0
29.9927 3142.0
30.1883 3066.0
30.3839 2982.0
30.5795 2939.0
30.7751 2915.0
30.9706 2885.0
31.1662 2823.0
31.3618 2733.0
31.5574 2818.0
31.753 2677.0
31.9486 2677.0
32.1442 2537.0
32.3398 2489.0
32.5354 2470.0
32.731 2440.0
32.9266 2468.0
33.1222 2454.0
33.3178 2375.0
33.5134 2349.0
33.709 2397.0
33.9046 2337.0
34.1002 2393.0
34.2958 2292.0
34.4914 2302.0
34.687 2325.0
34.8826 2238.0
35.0782 2331.0
35.2738 2298.0
35.4694 2216.0
35.665 2143.0
35.8605 2178.0
36.0561 2139.0
36.2517 2170.0
36.4473 2131.0
36.6429 2150.0
36.8385 2109.0
37.0341 2095.0
37.2297 2105.0
37.4253 2134.0
37.6209 2146.0
37.8165 2069.0
38.0121 2043.0
38.2077 1965.0
38.4033 2024.0
38.5989 2083.0
38.7945 2069.0
38.9901 2157.0
39.1857 2045.0
39.3813 2125.0
39.5769 2063.0
39.7725 2050.0
39.9681 2076.0
40.1637 1988.0
40.3593 1988.0
40.5548 1972.0
40.7504 1949.0
40.946 2031.0
41.1416 1986.0
41.3372 2064.0
41.5328 2025.0
41.7284 1962.0
41.924 1970.0
42.1196 1986.0
42.3152 1983.0
42.5108 1977.0
42.7064 1918.0
42.902 1936.0
43.0976 1911.0
43.2932 1845.0
43.4888 1840.0
43.6844 1808.0
43.88 1864.0
44.0756 1781.0
44.2712 1748.0
44.4668 1798.0
44.6624 1724.0
44.858 1759.0
45.0536 1647.0
45.2492 1674.0
45.4447 1634.0
45.6403 1657.0
45.8359 1744.0
46.0315 1605.0
46.2271 1610.0
46.4227 1546.0
46.6183 1594.0
46.8139 1609.0
47.0095 1497.0
47.2051 1479.0
47.4007 1548.0
47.5963 1471.0
47.7919 1495.0
47.9875 1473.0
48.1831 1385.0
48.3787 1431.0
48.5743 1504.0
48.7699 1429.0
48.9655 1419.0
49.1611 1414.0
49.3567 1410.0
49.5523 1260.0
49.7479 1375.0
49.9435 1300.0
50.139 1249.0
50.3346 1233.0
50.5302 1275.0
50.7258 1251.0
50.9214 1161.0
51.117 1224.0
51.3126 1198.0
51.5082 1215.0
51.7038 1166.0
51.8994 1126.0
52.095 1176.0
52.2906 1106.0
52.4862 1209.0
52.6818 1151.0
52.8774 1149.0
53.073 1071.0
53.2686 1093.0
53.4642 1089.0
53.6598 1087.0
53.8554 1127.0
54.051 1085.0
54.2466 1091.0
54.4422 1007.0
54.6378 1087.0
54.8334 1040.0
55.0289 1001.0
55.2245 1013.0
55.4201 1065.0
55.6157 1036.0
55.8113 996.0
56.0069 947.0
56.2025 954.0
56.3981 951.0
56.5937 940.0
56.7893 930.0
56.9849 973.0
57.1805 948.0
57.3761 904.0
57.5717 920.0
57.7673 918.0
57.9629 940.0
58.1585 909.0
58.3541 925.0
58.5497 877.0
58.7453 867.0
58.9409 864.0
59.1365 874.0
59.3321 873.0
59.5277 824.0
59.7233 847.0
59.9188 784.0
59.9949 826.0