File: XRD/2023_07_24_CBD_Liq_3_60_22min_Qtz.xy
3.00043 24664.0
3.19603 19409.0
3.39163 14967.0
3.58722 11070.0
3.78282 8594.0
3.97841 6077.0
4.17401 4735.0
4.3696 3570.0
4.5652 2959.0
4.7608 2722.0
4.95639 2856.0
5.15199 2939.0
5.34758 3116.0
5.54318 3355.0
5.73878 3575.0
5.93437 3814.0
6.12997 3979.0
6.32556 4085.0
6.52116 4326.0
6.71676 4616.0
6.91235 4797.0
7.10795 5007.0
7.30354 5261.0
7.49914 5192.0
7.69474 5204.0
7.89033 5230.0
8.08593 5422.0
8.28152 5342.0
8.47712 5199.0
8.67271 5281.0
8.86831 5307.0
9.06391 5065.0
9.2595 5009.0
9.4551 5049.0
9.65069 4922.0
9.84629 4755.0
10.0419 4628.0
10.2375 4701.0
10.4331 4751.0
10.6287 4827.0
10.8243 4810.0
11.0199 4852.0
11.2155 4886.0
11.4111 4929.0
11.6067 5108.0
11.8022 5253.0
11.9978 5385.0
12.1934 5599.0
12.389 5599.0
12.5846 5762.0
12.7802 6327.0
12.9758 6295.0
13.1714 6369.0
13.367 6739.0
13.5626 6771.0
13.7582 7023.0
13.9538 7118.0
14.1494 7339.0
14.345 7414.0
14.5406 7495.0
14.7362 7660.0
14.9318 7501.0
15.1274 7509.0
15.323 7557.0
15.5186 7726.0
15.7142 7681.0
15.9098 7759.0
16.1054 7911.0
16.301 7753.0
16.4966 7798.0
16.6921 7968.0
16.8877 8032.0
17.0833 8189.0
17.2789 8095.0
17.4745 8310.0
17.6701 8508.0
17.8657 8480.0
18.0613 8709.0
18.2569 8641.0
18.4525 8748.0
18.6481 8863.0
18.8437 8943.0
19.0393 9215.0
19.2349 8998.0
19.4305 9188.0
19.6261 9139.0
19.8217 9108.0
20.0173 9102.0
20.2129 9313.0
20.4085 9100.0
20.6041 8926.0
20.7997 8952.0
20.9953 8872.0
21.1909 9001.0
21.3864 8783.0
21.582 8718.0
21.7776 8640.0
21.9732 8406.0
22.1688 8361.0
22.3644 8232.0
22.56 7876.0
22.7556 7855.0
22.9512 7497.0
23.1468 7632.0
23.3424 7329.0
23.538 7096.0
23.7336 6828.0
23.9292 6801.0
24.1248 6718.0
24.3204 6795.0
24.516 6313.0
24.7116 6385.0
24.9072 6164.0
25.1028 6165.0
25.2984 5966.0
25.494 5704.0
25.6896 5714.0
25.8852 5553.0
26.0808 5348.0
26.2763 5331.0
26.4719 5126.0
26.6675 5053.0
26.8631 4927.0
27.0587 4976.0
27.2543 4929.0
27.4499 4714.0
27.6455 4813.0
27.8411 4691.0
28.0367 4648.0
28.2323 4532.0
28.4279 4421.0
28.6235 4412.0
28.8191 4213.0
29.0147 4297.0
29.2103 4268.0
29.4059 4105.0
29.6015 4018.0
29.7971 3942.0
29.9927 3949.0
30.1883 3855.0
30.3839 3879.0
30.5795 3636.0
30.7751 3681.0
30.9706 3637.0
31.1662 3607.0
31.3618 3522.0
31.5574 3614.0
31.753 3548.0
31.9486 3458.0
32.1442 3339.0
32.3398 3404.0
32.5354 3279.0
32.731 3305.0
32.9266 3216.0
33.1222 3270.0
33.3178 3095.0
33.5134 3108.0
33.709 3164.0
33.9046 3113.0
34.1002 3078.0
34.2958 3091.0
34.4914 3112.0
34.687 3054.0
34.8826 3028.0
35.0782 2944.0
35.2738 2928.0
35.4694 2998.0
35.665 3002.0
35.8605 2995.0
36.0561 2938.0
36.2517 3018.0
36.4473 2991.0
36.6429 2891.0
36.8385 2941.0
37.0341 2969.0
37.2297 2961.0
37.4253 2911.0
37.6209 2947.0
37.8165 2908.0
38.0121 2934.0
38.2077 2840.0
38.4033 2950.0
38.5989 2862.0
38.7945 2904.0
38.9901 2894.0
39.1857 2929.0
39.3813 2882.0
39.5769 2864.0
39.7725 2906.0
39.9681 2858.0
40.1637 2903.0
40.3593 2979.0
40.5548 2864.0
40.7504 2782.0
40.946 2772.0
41.1416 2763.0
41.3372 2888.0
41.5328 2797.0
41.7284 2848.0
41.924 2803.0
42.1196 2885.0
42.3152 2717.0
42.5108 2730.0
42.7064 2827.0
42.902 2706.0
43.0976 2710.0
43.2932 2746.0
43.4888 2748.0
43.6844 2601.0
43.88 2612.0
44.0756 2618.0
44.2712 2629.0
44.4668 2647.0
44.6624 2642.0
44.858 2558.0
45.0536 2512.0
45.2492 2459.0
45.4447 2528.0
45.6403 2428.0
45.8359 2440.0
46.0315 2448.0
46.2271 2320.0
46.4227 2385.0
46.6183 2317.0
46.8139 2296.0
47.0095 2231.0
47.2051 2228.0
47.4007 2247.0
47.5963 2143.0
47.7919 2235.0
47.9875 2134.0
48.1831 2119.0
48.3787 1996.0
48.5743 2108.0
48.7699 2082.0
48.9655 1973.0
49.1611 2013.0
49.3567 1978.0
49.5523 2042.0
49.7479 1953.0
49.9435 1902.0
50.139 1944.0
50.3346 1937.0
50.5302 1873.0
50.7258 1879.0
50.9214 1816.0
51.117 1748.0
51.3126 1883.0
51.5082 1773.0
51.7038 1753.0
51.8994 1774.0
52.095 1728.0
52.2906 1760.0
52.4862 1688.0
52.6818 1753.0
52.8774 1728.0
53.073 1653.0
53.2686 1606.0
53.4642 1686.0
53.6598 1569.0
53.8554 1549.0
54.051 1592.0
54.2466 1649.0
54.4422 1561.0
54.6378 1621.0
54.8334 1577.0
55.0289 1482.0
55.2245 1513.0
55.4201 1457.0
55.6157 1498.0
55.8113 1457.0
56.0069 1467.0
56.2025 1484.0
56.3981 1481.0
56.5937 1478.0
56.7893 1430.0
56.9849 1426.0
57.1805 1441.0
57.3761 1370.0
57.5717 1394.0
57.7673 1414.0
57.9629 1361.0
58.1585 1425.0
58.3541 1374.0
58.5497 1351.0
58.7453 1361.0
58.9409 1377.0
59.1365 1338.0
59.3321 1335.0
59.5277 1379.0
59.7233 1366.0
59.9188 1308.0
59.9949 1392.0