File: XRD/2023_07_24_pXRD_CBD_Xtal_RT_3_60_8.xy
3.00043 7792.0
3.19603 6066.0
3.39163 4561.0
3.58722 3395.0
3.78282 2484.0
3.97841 1758.0
4.17401 1168.0
4.3696 880.0
4.5652 603.0
4.7608 448.0
4.95639 488.0
5.15199 538.0
5.34758 419.0
5.54318 427.0
5.73878 398.0
5.93437 386.0
6.12997 344.0
6.32556 318.0
6.52116 315.0
6.71676 298.0
6.91235 325.0
7.10795 288.0
7.30354 281.0
7.49914 303.0
7.69474 336.0
7.89033 339.0
8.08593 380.0
8.28152 573.0
8.47712 309.0
8.67271 304.0
8.86831 372.0
9.06391 684.0
9.2595 2129.0
9.4551 2154.0
9.65069 6801.0
9.84629 1468.0
10.0419 2668.0
10.2375 4033.0
10.4331 454.0
10.6287 387.0
10.8243 366.0
11.0199 361.0
11.2155 378.0
11.4111 631.0
11.6067 1838.0
11.8022 2078.0
11.9978 373.0
12.1934 517.0
12.389 1641.0
12.5846 1108.0
12.7802 678.0
12.9758 2224.0
13.1714 3557.0
13.367 566.0
13.5626 1164.0
13.7582 2418.0
13.9538 382.0
14.1494 370.0
14.345 345.0
14.5406 400.0
14.7362 566.0
14.9318 1947.0
15.1274 2140.0
15.323 977.0
15.5186 385.0
15.7142 425.0
15.9098 497.0
16.1054 581.0
16.301 379.0
16.4966 744.0
16.6921 654.0
16.8877 997.0
17.0833 1076.0
17.2789 5299.0
17.4745 2455.0
17.6701 636.0
17.8657 1166.0
18.0613 583.0
18.2569 529.0
18.4525 1017.0
18.6481 4629.0
18.8437 3968.0
19.0393 2303.0
19.2349 737.0
19.4305 1665.0
19.6261 1143.0
19.8217 826.0
20.0173 613.0
20.2129 705.0
20.4085 3839.0
20.6041 2688.0
20.7997 1480.0
20.9953 762.0
21.1909 589.0
21.3864 828.0
21.582 3253.0
21.7776 1579.0
21.9732 4575.0
22.1688 5500.0
22.3644 793.0
22.56 1751.0
22.7556 1880.0
22.9512 1352.0
23.1468 785.0
23.3424 627.0
23.538 1288.0
23.7336 4097.0
23.9292 776.0
24.1248 570.0
24.3204 1587.0
24.516 966.0
24.7116 968.0
24.9072 530.0
25.1028 983.0
25.2984 1198.0
25.494 724.0
25.6896 527.0
25.8852 437.0
26.0808 620.0
26.2763 815.0
26.4719 1211.0
26.6675 906.0
26.8631 561.0
27.0587 801.0
27.2543 670.0
27.4499 1301.0
27.6455 1513.0
27.8411 657.0
28.0367 514.0
28.2323 500.0
28.4279 669.0
28.6235 852.0
28.8191 678.0
29.0147 1697.0
29.2103 692.0
29.4059 535.0
29.6015 489.0
29.7971 326.0
29.9927 347.0
30.1883 407.0
30.3839 565.0
30.5795 496.0
30.7751 443.0
30.9706 567.0
31.1662 829.0
31.3618 442.0
31.5574 356.0
31.753 349.0
31.9486 398.0
32.1442 407.0
32.3398 393.0
32.5354 620.0
32.731 446.0
32.9266 420.0
33.1222 431.0
33.3178 491.0
33.5134 392.0
33.709 413.0
33.9046 614.0
34.1002 557.0
34.2958 414.0
34.4914 516.0
34.687 625.0
34.8826 479.0
35.0782 461.0
35.2738 521.0
35.4694 326.0
35.665 326.0
35.8605 381.0
36.0561 295.0
36.2517 365.0
36.4473 471.0
36.6429 509.0
36.8385 440.0
37.0341 453.0
37.2297 389.0
37.4253 415.0
37.6209 378.0
37.8165 467.0
38.0121 441.0
38.2077 428.0
38.4033 325.0
38.5989 338.0
38.7945 332.0
38.9901 381.0
39.1857 358.0
39.3813 398.0
39.5769 327.0
39.7725 338.0
39.9681 320.0
40.1637 424.0
40.3593 553.0
40.5548 419.0
40.7504 357.0
40.946 357.0
41.1416 314.0
41.3372 267.0
41.5328 293.0
41.7284 430.0
41.924 439.0
42.1196 318.0
42.3152 381.0
42.5108 449.0
42.7064 401.0
42.902 325.0
43.0976 354.0
43.2932 368.0
43.4888 354.0
43.6844 302.0
43.88 270.0
44.0756 264.0
44.2712 278.0
44.4668 305.0
44.6624 311.0
44.858 287.0
45.0536 413.0
45.2492 332.0
45.4447 370.0
45.6403 284.0
45.8359 313.0
46.0315 306.0
46.2271 353.0
46.4227 322.0
46.6183 315.0
46.8139 354.0
47.0095 275.0
47.2051 272.0
47.4007 232.0
47.5963 300.0
47.7919 256.0
47.9875 258.0
48.1831 275.0
48.3787 220.0
48.5743 290.0
48.7699 306.0
48.9655 317.0
49.1611 332.0
49.3567 286.0
49.5523 265.0
49.7479 239.0
49.9435 304.0
50.139 247.0
50.3346 279.0
50.5302 271.0
50.7258 216.0
50.9214 240.0
51.117 250.0
51.3126 216.0
51.5082 239.0
51.7038 248.0
51.8994 295.0
52.095 320.0
52.2906 237.0
52.4862 247.0
52.6818 239.0
52.8774 263.0
53.073 239.0
53.2686 192.0
53.4642 230.0
53.6598 228.0
53.8554 217.0
54.051 205.0
54.2466 233.0
54.4422 221.0
54.6378 176.0
54.8334 189.0
55.0289 212.0
55.2245 195.0
55.4201 183.0
55.6157 225.0
55.8113 201.0
56.0069 181.0
56.2025 172.0
56.3981 186.0
56.5937 196.0
56.7893 173.0
56.9849 172.0
57.1805 216.0
57.3761 193.0
57.5717 162.0
57.7673 160.0
57.9629 151.0
58.1585 171.0
58.3541 174.0
58.5497 150.0
58.7453 186.0
58.9409 196.0
59.1365 166.0
59.3321 190.0
59.5277 160.0
59.7233 167.0
59.9188 156.0
59.9949 154.0