File: XRD/2023_07_24_pXRD_CBD_Heat_Gun.xy
3.00043 7753.0
3.19603 6094.0
3.39163 4601.0
3.58722 3350.0
3.78282 2505.0
3.97841 1734.0
4.17401 1287.0
4.3696 837.0
4.5652 560.0
4.7608 458.0
4.95639 526.0
5.15199 484.0
5.34758 425.0
5.54318 448.0
5.73878 421.0
5.93437 429.0
6.12997 362.0
6.32556 370.0
6.52116 330.0
6.71676 372.0
6.91235 350.0
7.10795 356.0
7.30354 344.0
7.49914 364.0
7.69474 388.0
7.89033 403.0
8.08593 480.0
8.28152 759.0
8.47712 498.0
8.67271 404.0
8.86831 469.0
9.06391 803.0
9.2595 2430.0
9.4551 3695.0
9.65069 11707.0
9.84629 3932.0
10.0419 2562.0
10.2375 2477.0
10.4331 564.0
10.6287 443.0
10.8243 460.0
11.0199 424.0
11.2155 515.0
11.4111 702.0
11.6067 2274.0
11.8022 2367.0
11.9978 565.0
12.1934 653.0
12.389 2154.0
12.5846 1616.0
12.7802 845.0
12.9758 2449.0
13.1714 2881.0
13.367 621.0
13.5626 1130.0
13.7582 2304.0
13.9538 566.0
14.1494 399.0
14.345 380.0
14.5406 480.0
14.7362 623.0
14.9318 2358.0
15.1274 2134.0
15.323 906.0
15.5186 462.0
15.7142 416.0
15.9098 534.0
16.1054 573.0
16.301 511.0
16.4966 1364.0
16.6921 782.0
16.8877 1405.0
17.0833 1935.0
17.2789 8907.0
17.4745 2257.0
17.6701 730.0
17.8657 1370.0
18.0613 739.0
18.2569 630.0
18.4525 1029.0
18.6481 4867.0
18.8437 5434.0
19.0393 2720.0
19.2349 984.0
19.4305 2449.0
19.6261 1278.0
19.8217 924.0
20.0173 707.0
20.2129 815.0
20.4085 3969.0
20.6041 2321.0
20.7997 2215.0
20.9953 1023.0
21.1909 707.0
21.3864 1096.0
21.582 5367.0
21.7776 1786.0
21.9732 5637.0
22.1688 5694.0
22.3644 997.0
22.56 3273.0
22.7556 1832.0
22.9512 1157.0
23.1468 837.0
23.3424 695.0
23.538 1437.0
23.7336 2189.0
23.9292 849.0
24.1248 710.0
24.3204 1851.0
24.516 931.0
24.7116 926.0
24.9072 590.0
25.1028 1172.0
25.2984 1384.0
25.494 1187.0
25.6896 574.0
25.8852 527.0
26.0808 748.0
26.2763 990.0
26.4719 1323.0
26.6675 951.0
26.8631 673.0
27.0587 1096.0
27.2543 753.0
27.4499 1180.0
27.6455 1361.0
27.8411 728.0
28.0367 645.0
28.2323 615.0
28.4279 814.0
28.6235 1181.0
28.8191 713.0
29.0147 1913.0
29.2103 749.0
29.4059 597.0
29.6015 507.0
29.7971 412.0
29.9927 413.0
30.1883 546.0
30.3839 565.0
30.5795 576.0
30.7751 508.0
30.9706 680.0
31.1662 850.0
31.3618 528.0
31.5574 393.0
31.753 416.0
31.9486 465.0
32.1442 450.0
32.3398 474.0
32.5354 687.0
32.731 564.0
32.9266 506.0
33.1222 553.0
33.3178 572.0
33.5134 598.0
33.709 490.0
33.9046 845.0
34.1002 671.0
34.2958 625.0
34.4914 761.0
34.687 903.0
34.8826 656.0
35.0782 619.0
35.2738 656.0
35.4694 438.0
35.665 448.0
35.8605 440.0
36.0561 406.0
36.2517 405.0
36.4473 580.0
36.6429 526.0
36.8385 519.0
37.0341 555.0
37.2297 441.0
37.4253 419.0
37.6209 470.0
37.8165 506.0
38.0121 458.0
38.2077 455.0
38.4033 425.0
38.5989 372.0
38.7945 402.0
38.9901 404.0
39.1857 407.0
39.3813 384.0
39.5769 388.0
39.7725 396.0
39.9681 346.0
40.1637 486.0
40.3593 505.0
40.5548 536.0
40.7504 347.0
40.946 354.0
41.1416 335.0
41.3372 346.0
41.5328 384.0
41.7284 410.0
41.924 418.0
42.1196 312.0
42.3152 401.0
42.5108 477.0
42.7064 440.0
42.902 385.0
43.0976 454.0
43.2932 496.0
43.4888 413.0
43.6844 345.0
43.88 322.0
44.0756 320.0
44.2712 391.0
44.4668 319.0
44.6624 348.0
44.858 388.0
45.0536 404.0
45.2492 477.0
45.4447 360.0
45.6403 302.0
45.8359 350.0
46.0315 374.0
46.2271 351.0
46.4227 375.0
46.6183 402.0
46.8139 420.0
47.0095 354.0
47.2051 299.0
47.4007 305.0
47.5963 296.0
47.7919 310.0
47.9875 331.0
48.1831 341.0
48.3787 287.0
48.5743 266.0
48.7699 245.0
48.9655 321.0
49.1611 306.0
49.3567 335.0
49.5523 354.0
49.7479 301.0
49.9435 334.0
50.139 360.0
50.3346 298.0
50.5302 292.0
50.7258 315.0
50.9214 278.0
51.117 237.0
51.3126 248.0
51.5082 296.0
51.7038 312.0
51.8994 275.0
52.095 350.0
52.2906 299.0
52.4862 263.0
52.6818 248.0
52.8774 260.0
53.073 239.0
53.2686 232.0
53.4642 241.0
53.6598 237.0
53.8554 237.0
54.051 223.0
54.2466 231.0
54.4422 246.0
54.6378 245.0
54.8334 261.0
55.0289 238.0
55.2245 239.0
55.4201 236.0
55.6157 208.0
55.8113 242.0
56.0069 235.0
56.2025 214.0
56.3981 219.0
56.5937 184.0
56.7893 189.0
56.9849 206.0
57.1805 195.0
57.3761 234.0
57.5717 180.0
57.7673 169.0
57.9629 199.0
58.1585 176.0
58.3541 203.0
58.5497 212.0
58.7453 212.0
58.9409 196.0
59.1365 177.0
59.3321 180.0
59.5277 198.0
59.7233 173.0
59.9188 205.0
59.9949 162.0