File: XRD/2025_06_12_NaCl_3_60_8m_pXRD.xy
3.00043 43180.0
3.19603 34570.0
3.39163 26949.0
3.58722 20558.0
3.78282 15091.0
3.97841 10932.0
4.17401 7897.0
4.3696 5442.0
4.5652 3795.0
4.7608 2499.0
4.95639 2165.0
5.15199 1985.0
5.34758 1976.0
5.54318 1466.0
5.73878 1126.0
5.93437 1017.0
6.12997 894.0
6.32556 770.0
6.52116 735.0
6.71676 736.0
6.91235 712.0
7.10795 716.0
7.30354 754.0
7.49914 756.0
7.69474 777.0
7.89033 814.0
8.08593 833.0
8.28152 894.0
8.47712 860.0
8.67271 1046.0
8.86831 1046.0
9.06391 1009.0
9.2595 1139.0
9.4551 1200.0
9.65069 1250.0
9.84629 1260.0
10.0419 1291.0
10.2375 1325.0
10.4331 1359.0
10.6287 1406.0
10.8243 1441.0
11.0199 1482.0
11.2155 1471.0
11.4111 1477.0
11.6067 1478.0
11.8022 1524.0
11.9978 1482.0
12.1934 1512.0
12.389 1474.0
12.5846 1567.0
12.7802 1533.0
12.9758 1580.0
13.1714 1620.0
13.367 1582.0
13.5626 1511.0
13.7582 1547.0
13.9538 1566.0
14.1494 1512.0
14.345 1432.0
14.5406 1487.0
14.7362 1409.0
14.9318 1378.0
15.1274 1450.0
15.323 1375.0
15.5186 1296.0
15.7142 1316.0
15.9098 1217.0
16.1054 1235.0
16.301 1188.0
16.4966 1130.0
16.6921 1124.0
16.8877 1141.0
17.0833 1053.0
17.2789 1019.0
17.4745 1044.0
17.6701 997.0
17.8657 966.0
18.0613 873.0
18.2569 850.0
18.4525 893.0
18.6481 794.0
18.8437 764.0
19.0393 736.0
19.2349 700.0
19.4305 731.0
19.6261 658.0
19.8217 688.0
20.0173 668.0
20.2129 709.0
20.4085 642.0
20.6041 649.0
20.7997 615.0
20.9953 600.0
21.1909 544.0
21.3864 574.0
21.582 548.0
21.7776 555.0
21.9732 558.0
22.1688 569.0
22.3644 492.0
22.56 514.0
22.7556 423.0
22.9512 429.0
23.1468 429.0
23.3424 477.0
23.538 418.0
23.7336 444.0
23.9292 434.0
24.1248 423.0
24.3204 391.0
24.516 414.0
24.7116 407.0
24.9072 341.0
25.1028 319.0
25.2984 386.0
25.494 440.0
25.6896 387.0
25.8852 388.0
26.0808 349.0
26.2763 389.0
26.4719 338.0
26.6675 354.0
26.8631 351.0
27.0587 358.0
27.2543 442.0
27.4499 396.0
27.6455 395.0
27.8411 374.0
28.0367 387.0
28.2323 391.0
28.4279 531.0
28.6235 605.0
28.8191 406.0
29.0147 361.0
29.2103 364.0
29.4059 388.0
29.6015 388.0
29.7971 400.0
29.9927 394.0
30.1883 355.0
30.3839 400.0
30.5795 796.0
30.7751 1070.0
30.9706 1112.0
31.1662 1741.0
31.3618 3357.0
31.5574 42034.0
31.753 106589.0
31.9486 5065.0
32.1442 1435.0
32.3398 919.0
32.5354 820.0
32.731 739.0
32.9266 655.0
33.1222 654.0
33.3178 578.0
33.5134 552.0
33.709 528.0
33.9046 537.0
34.1002 502.0
34.2958 483.0
34.4914 465.0
34.687 462.0
34.8826 429.0
35.0782 404.0
35.2738 426.0
35.4694 383.0
35.665 372.0
35.8605 374.0
36.0561 341.0
36.2517 341.0
36.4473 338.0
36.6429 286.0
36.8385 347.0
37.0341 298.0
37.2297 304.0
37.4253 308.0
37.6209 293.0
37.8165 279.0
38.0121 286.0
38.2077 249.0
38.4033 245.0
38.5989 243.0
38.7945 243.0
38.9901 219.0
39.1857 217.0
39.3813 264.0
39.5769 213.0
39.7725 206.0
39.9681 226.0
40.1637 233.0
40.3593 182.0
40.5548 196.0
40.7504 225.0
40.946 224.0
41.1416 228.0
41.3372 191.0
41.5328 202.0
41.7284 201.0
41.924 181.0
42.1196 202.0
42.3152 187.0
42.5108 184.0
42.7064 155.0
42.902 178.0
43.0976 197.0
43.2932 167.0
43.4888 172.0
43.6844 217.0
43.88 193.0
44.0756 180.0
44.2712 187.0
44.4668 158.0
44.6624 182.0
44.858 194.0
45.0536 234.0
45.2492 424.0
45.4447 2510.0
45.6403 1119.0
45.8359 192.0
46.0315 176.0
46.2271 158.0
46.4227 168.0
46.6183 175.0
46.8139 151.0
47.0095 156.0
47.2051 172.0
47.4007 145.0
47.5963 141.0
47.7919 148.0
47.9875 162.0
48.1831 122.0
48.3787 160.0
48.5743 114.0
48.7699 104.0
48.9655 134.0
49.1611 121.0
49.3567 108.0
49.5523 125.0
49.7479 143.0
49.9435 123.0
50.139 124.0
50.3346 132.0
50.5302 125.0
50.7258 149.0
50.9214 123.0
51.117 121.0
51.3126 132.0
51.5082 99.0
51.7038 143.0
51.8994 101.0
52.095 111.0
52.2906 145.0
52.4862 138.0
52.6818 125.0
52.8774 121.0
53.073 115.0
53.2686 133.0
53.4642 132.0
53.6598 152.0
53.8554 273.0
54.051 160.0
54.2466 117.0
54.4422 95.0
54.6378 107.0
54.8334 98.0
55.0289 111.0
55.2245 123.0
55.4201 107.0
55.6157 111.0
55.8113 130.0
56.0069 116.0
56.2025 131.0
56.3981 502.0
56.5937 360.0
56.7893 106.0
56.9849 123.0
57.1805 128.0
57.3761 99.0
57.5717 119.0
57.7673 114.0
57.9629 111.0
58.1585 125.0
58.3541 108.0
58.5497 127.0
58.7453 119.0
58.9409 119.0
59.1365 158.0
59.3321 109.0
59.5277 88.0
59.7233 121.0
59.9188 106.0
59.9949 110.0