File: XRD/2025_06_12_NIF_Xtal_DSC4_3_60_22m.xy
3.00043 127404.0
3.19603 101282.0
3.39163 78614.0
3.58722 60015.0
3.78282 44919.0
3.97841 32983.0
4.17401 23459.0
4.3696 16574.0
4.5652 11515.0
4.7608 8493.0
4.95639 7030.0
5.15199 6683.0
5.34758 6646.0
5.54318 5301.0
5.73878 4189.0
5.93437 3936.0
6.12997 3626.0
6.32556 3340.0
6.52116 3129.0
6.71676 2943.0
6.91235 2798.0
7.10795 2628.0
7.30354 2585.0
7.49914 3072.0
7.69474 4197.0
7.89033 9167.0
8.08593 21194.0
8.28152 13517.0
8.47712 3638.0
8.67271 2873.0
8.86831 2436.0
9.06391 2490.0
9.2595 2527.0
9.4551 2467.0
9.65069 2591.0
9.84629 2883.0
10.0419 4086.0
10.2375 8484.0
10.4331 20158.0
10.6287 13984.0
10.8243 5187.0
11.0199 3200.0
11.2155 3050.0
11.4111 4646.0
11.6067 12671.0
11.8022 33201.0
11.9978 34240.0
12.1934 13493.0
12.389 4825.0
12.5846 3090.0
12.7802 3366.0
12.9758 5628.0
13.1714 5071.0
13.367 4218.0
13.5626 3461.0
13.7582 2629.0
13.9538 2580.0
14.1494 2457.0
14.345 3005.0
14.5406 6802.0
14.7362 14852.0
14.9318 12625.0
15.1274 4029.0
15.323 2866.0
15.5186 2456.0
15.7142 2649.0
15.9098 4866.0
16.1054 16712.0
16.301 13715.0
16.4966 5595.0
16.6921 3525.0
16.8877 4351.0
17.0833 11646.0
17.2789 9284.0
17.4745 3956.0
17.6701 2547.0
17.8657 2409.0
18.0613 2838.0
18.2569 6297.0
18.4525 6884.0
18.6481 4265.0
18.8437 5747.0
19.0393 7791.0
19.2349 8105.0
19.4305 12841.0
19.6261 23008.0
19.8217 23984.0
20.0173 19371.0
20.2129 7719.0
20.4085 4204.0
20.6041 4209.0
20.7997 4484.0
20.9953 5592.0
21.1909 8022.0
21.3864 6448.0
21.582 5247.0
21.7776 10852.0
21.9732 11298.0
22.1688 12860.0
22.3644 12531.0
22.56 13511.0
22.7556 17192.0
22.9512 13235.0
23.1468 4950.0
23.3424 3552.0
23.538 3205.0
23.7336 3926.0
23.9292 4478.0
24.1248 9603.0
24.3204 15006.0
24.516 16915.0
24.7116 22939.0
24.9072 19976.0
25.1028 12473.0
25.2984 6025.0
25.494 4465.0
25.6896 11169.0
25.8852 21859.0
26.0808 12828.0
26.2763 10562.0
26.4719 13118.0
26.6675 10488.0
26.8631 15227.0
27.0587 19382.0
27.2543 9162.0
27.4499 3694.0
27.6455 4358.0
27.8411 5933.0
28.0367 6386.0
28.2323 4951.0
28.4279 3743.0
28.6235 4140.0
28.8191 3006.0
29.0147 3299.0
29.2103 3878.0
29.4059 3349.0
29.6015 5637.0
29.7971 5441.0
29.9927 4023.0
30.1883 3410.0
30.3839 3547.0
30.5795 3413.0
30.7751 3192.0
30.9706 3626.0
31.1662 4225.0
31.3618 5558.0
31.5574 6075.0
31.753 5961.0
31.9486 6273.0
32.1442 4168.0
32.3398 4217.0
32.5354 4221.0
32.731 4834.0
32.9266 5143.0
33.1222 4319.0
33.3178 3719.0
33.5134 3653.0
33.709 2309.0
33.9046 2014.0
34.1002 1970.0
34.2958 2117.0
34.4914 2484.0
34.687 2995.0
34.8826 2674.0
35.0782 2307.0
35.2738 3298.0
35.4694 3328.0
35.665 4482.0
35.8605 5443.0
36.0561 4223.0
36.2517 3928.0
36.4473 3038.0
36.6429 2392.0
36.8385 2730.0
37.0341 2633.0
37.2297 2454.0
37.4253 2903.0
37.6209 2929.0
37.8165 3518.0
38.0121 4239.0
38.2077 2949.0
38.4033 2239.0
38.5989 3009.0
38.7945 4586.0
38.9901 4678.0
39.1857 2569.0
39.3813 3103.0
39.5769 2923.0
39.7725 2581.0
39.9681 2558.0
40.1637 2680.0
40.3593 2824.0
40.5548 2376.0
40.7504 2776.0
40.946 2562.0
41.1416 2219.0
41.3372 1942.0
41.5328 1844.0
41.7284 2289.0
41.924 2717.0
42.1196 3646.0
42.3152 3874.0
42.5108 3317.0
42.7064 2297.0
42.902 2658.0
43.0976 2791.0
43.2932 2764.0
43.4888 2597.0
43.6844 2285.0
43.88 2115.0
44.0756 2566.0
44.2712 3605.0
44.4668 3520.0
44.6624 4106.0
44.858 3643.0
45.0536 2944.0
45.2492 2458.0
45.4447 2099.0
45.6403 1967.0
45.8359 2091.0
46.0315 2381.0
46.2271 2391.0
46.4227 2714.0
46.6183 2185.0
46.8139 1913.0
47.0095 2657.0
47.2051 3249.0
47.4007 2663.0
47.5963 2653.0
47.7919 2384.0
47.9875 2026.0
48.1831 1954.0
48.3787 2435.0
48.5743 2741.0
48.7699 2020.0
48.9655 2035.0
49.1611 2169.0
49.3567 2015.0
49.5523 1999.0
49.7479 1806.0
49.9435 2131.0
50.139 2425.0
50.3346 2159.0
50.5302 2096.0
50.7258 1905.0
50.9214 1662.0
51.117 1680.0
51.3126 1687.0
51.5082 1836.0
51.7038 1670.0
51.8994 1613.0
52.095 1587.0
52.2906 1431.0
52.4862 1570.0
52.6818 1713.0
52.8774 2077.0
53.073 1985.0
53.2686 1770.0
53.4642 1707.0
53.6598 1643.0
53.8554 1696.0
54.051 1764.0
54.2466 1570.0
54.4422 1928.0
54.6378 1631.0
54.8334 1489.0
55.0289 1351.0
55.2245 1471.0
55.4201 1495.0
55.6157 1649.0
55.8113 1566.0
56.0069 1474.0
56.2025 1440.0
56.3981 1536.0
56.5937 1541.0
56.7893 1423.0
56.9849 1261.0
57.1805 1262.0
57.3761 1431.0
57.5717 1541.0
57.7673 1426.0
57.9629 1250.0
58.1585 1319.0
58.3541 1342.0
58.5497 1233.0
58.7453 1181.0
58.9409 1121.0
59.1365 1079.0
59.3321 1145.0
59.5277 1170.0
59.7233 1221.0
59.9188 1175.0
59.9949 1193.0