File: XRD/2025_06_03_CBN_Sorbic_Acid_Slurry.xy
10.0054 5465.0
10.2445 7456.0
10.4836 5201.0
10.7226 6532.0
10.9617 6110.0
11.2007 9471.0
11.4398 9952.0
11.6789 5395.0
11.9179 4816.0
12.157 5431.0
12.3961 12197.0
12.6351 9758.0
12.8742 5765.0
13.1132 4103.0
13.3523 4471.0
13.5914 3715.0
13.8304 4007.0
14.0695 4301.0
14.3085 7785.0
14.5476 8099.0
14.7867 4324.0
15.0257 4342.0
15.2648 6119.0
15.5039 5032.0
15.7429 4858.0
15.982 10590.0
16.221 14223.0
16.4601 5629.0
16.6992 5012.0
16.9382 6505.0
17.1773 4829.0
17.4163 4790.0
17.6554 7227.0
17.8945 9484.0
18.1335 13099.0
18.3726 16962.0
18.6117 10180.0
18.8507 6503.0
19.0898 9218.0
19.3288 8067.0
19.5679 7312.0
19.807 7917.0
20.046 6982.0
20.2851 10056.0
20.5241 14964.0
20.7632 8011.0
21.0023 6080.0
21.2413 6853.0
21.4804 9250.0
21.7195 11075.0
21.9585 7732.0
22.1976 7122.0
22.4366 7322.0
22.6757 4976.0
22.9148 5022.0
23.1538 4427.0
23.3929 3693.0
23.6319 3913.0
23.871 4875.0
24.1101 5959.0
24.3491 4112.0
24.5882 4994.0
24.8273 5208.0
25.0663 4698.0
25.3054 4385.0
25.5444 3977.0
25.7835 3908.0
26.0226 3143.0
26.2616 3278.0
26.5007 2865.0
26.7398 3059.0
26.9788 3459.0
27.2179 3852.0
27.4569 3103.0
27.696 3279.0
27.9351 2647.0
28.1741 2766.0
28.4132 2737.0
28.6522 3390.0
28.8913 2784.0
29.1304 2653.0
29.3694 2267.0
29.6085 2106.0
29.8476 2484.0
30.0866 2468.0
30.3257 2143.0
30.5647 2373.0
30.8038 2702.0
31.0429 2527.0
31.2819 2041.0
31.521 1985.0
31.76 2119.0
31.9991 2326.0
32.2382 2370.0
32.4772 2299.0
32.7163 2351.0
32.9554 1998.0
33.1944 1911.0
33.4335 1755.0
33.6725 1869.0
33.9116 2040.0
34.1507 2100.0
34.3897 1932.0
34.6288 2133.0
34.8678 2045.0
35.1069 1974.0
35.346 1772.0
35.585 1725.0
35.8241 1843.0
36.0632 1861.0
36.3022 1875.0
36.5413 1971.0
36.7803 1884.0
37.0194 1813.0
37.2585 2334.0
37.4975 2606.0
37.7366 2008.0
37.9756 2142.0
38.2147 2232.0
38.4538 2001.0
38.6928 1834.0
38.9319 1661.0
39.171 1637.0
39.41 1744.0
39.6491 1757.0
39.8881 1662.0
40.1272 1768.0
40.3663 1866.0
40.6053 1740.0
40.8444 1770.0
41.0835 1841.0
41.3225 1655.0
41.5616 1840.0
41.8006 1784.0
42.0397 1834.0
42.2788 1909.0
42.5178 1883.0
42.7569 1753.0
42.9959 1711.0
43.235 1559.0
43.4741 1569.0
43.7131 1604.0
43.9522 1541.0
44.1913 1596.0
44.4303 1605.0
44.6694 1584.0
44.9084 1547.0
45.1475 1399.0
45.3866 1461.0
45.6256 1534.0
45.8647 1403.0
46.1037 1383.0
46.3428 1428.0
46.5819 1435.0
46.8209 1468.0
47.06 1464.0
47.2991 1426.0
47.5381 1341.0
47.7772 1228.0
48.0162 1280.0
48.2553 1352.0
48.4944 1283.0
48.7334 1280.0
48.9725 1294.0
49.2115 1332.0
49.4506 1167.0
49.6897 1206.0
49.9287 1222.0
50.1678 1233.0
50.4069 1221.0
50.6459 1220.0
50.885 1247.0
51.124 1214.0
51.3631 1125.0
51.6022 1236.0
51.8412 1157.0
52.0803 1130.0
52.3194 1151.0
52.5584 1155.0
52.7975 1126.0
53.0365 1057.0
53.2756 1032.0
53.5147 1012.0
53.7537 1026.0
53.9928 1053.0
54.2318 1020.0
54.4709 1096.0
54.71 1065.0
54.949 989.0
55.1881 949.0
55.4272 945.0
55.6662 1000.0
55.9053 1035.0
56.1443 972.0
56.3834 907.0
56.6225 966.0
56.8615 903.0
57.1006 816.0
57.3396 816.0
57.5787 863.0
57.8178 847.0
58.0568 876.0
58.2959 865.0
58.535 800.0
58.774 758.0
59.0131 786.0
59.2521 810.0
59.4912 784.0
59.7303 804.0
59.9693 761.0
60.2084 843.0
60.4474 690.0
60.6865 706.0
60.9256 790.0
61.1646 765.0
61.4037 714.0
61.6428 743.0
61.8818 689.0
62.1209 761.0
62.3599 677.0
62.599 721.0
62.8381 660.0
63.0771 663.0
63.3162 667.0
63.5552 684.0
63.7943 668.0
64.0334 648.0
64.2724 678.0
64.5115 684.0
64.7506 697.0
64.9896 665.0
65.2287 648.0
65.4677 637.0
65.7068 623.0
65.9459 637.0
66.1849 640.0
66.424 592.0
66.6631 596.0
66.9021 591.0
67.1412 625.0
67.3802 649.0
67.6193 606.0
67.8584 626.0
68.0974 667.0
68.3365 572.0
68.5755 616.0
68.8146 605.0
69.0537 597.0
69.2927 599.0
69.5318 604.0
69.7709 582.0
70.0099 593.0
70.249 623.0
70.488 586.0
70.7271 593.0
70.9662 585.0
71.2052 582.0
71.4443 557.0
71.6833 581.0
71.9224 620.0
72.1615 639.0
72.4005 613.0
72.6396 572.0
72.8787 586.0
73.1177 631.0
73.3568 591.0
73.5958 582.0
73.8349 605.0
74.074 543.0
74.313 606.0
74.5521 593.0
74.7911 553.0
75.0302 601.0
75.2693 567.0
75.5083 539.0
75.7474 632.0
75.9865 604.0
76.2255 612.0
76.4646 615.0
76.7036 599.0
76.9427 597.0
77.1818 605.0
77.4208 617.0
77.6599 587.0
77.899 610.0
78.138 560.0
78.3771 606.0
78.6161 619.0
78.8552 607.0
79.0943 599.0
79.3333 590.0
79.5724 575.0
79.8114 570.0
79.9962 539.0