File: XRD/2025_06_03_CBD_10_80_50s.xy
10.0054 16658.0
10.2445 56802.0
10.4836 4277.0
10.7226 3164.0
10.9617 3025.0
11.2007 3139.0
11.4398 4364.0
11.6789 18192.0
11.9179 3886.0
12.157 3680.0
12.3961 8740.0
12.6351 5975.0
12.8742 6454.0
13.1132 25547.0
13.3523 4447.0
13.5914 7654.0
13.8304 12704.0
14.0695 2752.0
14.3085 2542.0
14.5476 2758.0
14.7867 4414.0
15.0257 20299.0
15.2648 9304.0
15.5039 4447.0
15.7429 2813.0
15.982 3611.0
16.221 3051.0
16.4601 4000.0
16.6992 4556.0
16.9382 6677.0
17.1773 13530.0
17.4163 58676.0
17.6554 5019.0
17.8945 11696.0
18.1335 3898.0
18.3726 4821.0
18.6117 22952.0
18.8507 47683.0
19.0898 10414.0
19.3288 6898.0
19.5679 10808.0
19.807 5179.0
20.046 4264.0
20.2851 8577.0
20.5241 32432.0
20.7632 9261.0
21.0023 6192.0
21.2413 4527.0
21.4804 12142.0
21.7195 21439.0
21.9585 24046.0
22.1976 55532.0
22.4366 7570.0
22.6757 21925.0
22.9148 7408.0
23.1538 5049.0
23.3929 4385.0
23.6319 10406.0
23.871 7721.0
24.1101 4064.0
24.3491 8489.0
24.5882 5347.0
24.8273 4230.0
25.0663 5140.0
25.3054 8267.0
25.5444 5806.0
25.7835 3128.0
26.0226 3468.0
26.2616 7327.0
26.5007 6664.0
26.7398 4797.0
26.9788 4773.0
27.2179 4797.0
27.4569 6582.0
27.696 7997.0
27.9351 3616.0
28.1741 3633.0
28.4132 4185.0
28.6522 5079.0
28.8913 6021.0
29.1304 7865.0
29.3694 3597.0
29.6085 2973.0
29.8476 2359.0
30.0866 2409.0
30.3257 3066.0
30.5647 3601.0
30.8038 3173.0
31.0429 3976.0
31.2819 3569.0
31.521 2231.0
31.76 2254.0
31.9991 2670.0
32.2382 2487.0
32.4772 3633.0
32.7163 2842.0
32.9554 2835.0
33.1944 2827.0
33.4335 2520.0
33.6725 2422.0
33.9116 4577.0
34.1507 3283.0
34.3897 3022.0
34.6288 4374.0
34.8678 5820.0
35.1069 3901.0
35.346 3306.0
35.585 2446.0
35.8241 2404.0
36.0632 2159.0
36.3022 2467.0
36.5413 3307.0
36.7803 2836.0
37.0194 2918.0
37.2585 2620.0
37.4975 2415.0
37.7366 2739.0
37.9756 2944.0
38.2147 2790.0
38.4538 2261.0
38.6928 2076.0
38.9319 2336.0
39.171 2307.0
39.41 2457.0
39.6491 2291.0
39.8881 1972.0
40.1272 2593.0
40.3663 2845.0
40.6053 2855.0
40.8444 2100.0
41.0835 1942.0
41.3225 1877.0
41.5616 2204.0
41.8006 2779.0
42.0397 1954.0
42.2788 2261.0
42.5178 2804.0
42.7569 2667.0
42.9959 2043.0
43.235 2642.0
43.4741 2451.0
43.7131 2033.0
43.9522 1820.0
44.1913 1964.0
44.4303 1949.0
44.6694 1864.0
44.9084 2182.0
45.1475 2275.0
45.3866 2194.0
45.6256 1898.0
45.8647 2077.0
46.1037 2092.0
46.3428 2064.0
46.5819 2109.0
46.8209 2248.0
47.06 1923.0
47.2991 1721.0
47.5381 2270.0
47.7772 1842.0
48.0162 1824.0
48.2553 1727.0
48.4944 1636.0
48.7334 1669.0
48.9725 1880.0
49.2115 2077.0
49.4506 1952.0
49.6897 1738.0
49.9287 1809.0
50.1678 1906.0
50.4069 1819.0
50.6459 1722.0
50.885 1542.0
51.124 1516.0
51.3631 1464.0
51.6022 1576.0
51.8412 1813.0
52.0803 1767.0
52.3194 1543.0
52.5584 1435.0
52.7975 1633.0
53.0365 1520.0
53.2756 1370.0
53.5147 1425.0
53.7537 1408.0
53.9928 1405.0
54.2318 1450.0
54.4709 1293.0
54.71 1341.0
54.949 1389.0
55.1881 1344.0
55.4272 1339.0
55.6662 1417.0
55.9053 1347.0
56.1443 1263.0
56.3834 1161.0
56.6225 1194.0
56.8615 1147.0
57.1006 1265.0
57.3396 1138.0
57.5787 1135.0
57.8178 1044.0
58.0568 1157.0
58.2959 1050.0
58.535 1219.0
58.774 1187.0
59.0131 1097.0
59.2521 1119.0
59.4912 1060.0
59.7303 1076.0
59.9693 1008.0
60.2084 972.0
60.4474 975.0
60.6865 986.0
60.9256 1023.0
61.1646 1042.0
61.4037 1013.0
61.6428 976.0
61.8818 955.0
62.1209 1018.0
62.3599 1068.0
62.599 974.0
62.8381 971.0
63.0771 944.0
63.3162 987.0
63.5552 931.0
63.7943 938.0
64.0334 939.0
64.2724 893.0
64.5115 898.0
64.7506 884.0
64.9896 882.0
65.2287 869.0
65.4677 859.0
65.7068 938.0
65.9459 871.0
66.1849 885.0
66.424 901.0
66.6631 855.0
66.9021 946.0
67.1412 882.0
67.3802 853.0
67.6193 843.0
67.8584 848.0
68.0974 887.0
68.3365 888.0
68.5755 901.0
68.8146 898.0
69.0537 829.0
69.2927 870.0
69.5318 800.0
69.7709 861.0
70.0099 906.0
70.249 845.0
70.488 866.0
70.7271 782.0
70.9662 854.0
71.2052 807.0
71.4443 831.0
71.6833 825.0
71.9224 860.0
72.1615 806.0
72.4005 860.0
72.6396 815.0
72.8787 806.0
73.1177 790.0
73.3568 887.0
73.5958 853.0
73.8349 807.0
74.074 827.0
74.313 817.0
74.5521 816.0
74.7911 859.0
75.0302 727.0
75.2693 813.0
75.5083 807.0
75.7474 785.0
75.9865 806.0
76.2255 793.0
76.4646 811.0
76.7036 818.0
76.9427 858.0
77.1818 776.0
77.4208 869.0
77.6599 809.0
77.899 860.0
78.138 798.0
78.3771 792.0
78.6161 814.0
78.8552 759.0
79.0943 809.0
79.3333 783.0
79.5724 794.0
79.8114 844.0
79.9962 829.0