File: XRD/2025_06_03_CBD_SA_Slurry_3_60_8min.xy
3.00043 44515.0
3.19603 35325.0
3.39163 27370.0
3.58722 21001.0
3.78282 15494.0
3.97841 11734.0
4.17401 8130.0
4.3696 5632.0
4.5652 3913.0
4.7608 3094.0
4.95639 2964.0
5.15199 4261.0
5.34758 2839.0
5.54318 3158.0
5.73878 4469.0
5.93437 1641.0
6.12997 1154.0
6.32556 1049.0
6.52116 919.0
6.71676 864.0
6.91235 761.0
7.10795 698.0
7.30354 646.0
7.49914 564.0
7.69474 525.0
7.89033 579.0
8.08593 520.0
8.28152 484.0
8.47712 523.0
8.67271 585.0
8.86831 688.0
9.06391 1074.0
9.2595 1919.0
9.4551 1568.0
9.65069 697.0
9.84629 586.0
10.0419 712.0
10.2375 940.0
10.4331 1419.0
10.6287 1671.0
10.8243 1100.0
11.0199 1745.0
11.2155 2174.0
11.4111 3120.0
11.6067 2749.0
11.8022 1273.0
11.9978 1141.0
12.1934 2020.0
12.389 1203.0
12.5846 1031.0
12.7802 852.0
12.9758 818.0
13.1714 634.0
13.367 647.0
13.5626 689.0
13.7582 614.0
13.9538 595.0
14.1494 612.0
14.345 832.0
14.5406 1376.0
14.7362 1449.0
14.9318 1034.0
15.1274 1856.0
15.323 2095.0
15.5186 3668.0
15.7142 5749.0
15.9098 1745.0
16.1054 1879.0
16.301 2908.0
16.4966 2404.0
16.6921 1827.0
16.8877 1245.0
17.0833 2102.0
17.2789 3112.0
17.4745 1907.0
17.6701 979.0
17.8657 1032.0
18.0613 1175.0
18.2569 2075.0
18.4525 4182.0
18.6481 6044.0
18.8437 3616.0
19.0393 3275.0
19.2349 3587.0
19.4305 2560.0
19.6261 1186.0
19.8217 1471.0
20.0173 1356.0
20.2129 1375.0
20.4085 2109.0
20.6041 4109.0
20.7997 4068.0
20.9953 6850.0
21.1909 6244.0
21.3864 2138.0
21.582 1255.0
21.7776 1089.0
21.9732 1439.0
22.1688 1821.0
22.3644 1231.0
22.56 1174.0
22.7556 1332.0
22.9512 1867.0
23.1468 1382.0
23.3424 1500.0
23.538 1763.0
23.7336 1071.0
23.9292 899.0
24.1248 1490.0
24.3204 2216.0
24.516 1225.0
24.7116 814.0
24.9072 692.0
25.1028 768.0
25.2984 869.0
25.494 898.0
25.6896 1230.0
25.8852 1440.0
26.0808 1622.0
26.2763 1688.0
26.4719 1122.0
26.6675 693.0
26.8631 676.0
27.0587 676.0
27.2543 887.0
27.4499 879.0
27.6455 777.0
27.8411 950.0
28.0367 970.0
28.2323 1109.0
28.4279 1175.0
28.6235 1009.0
28.8191 974.0
29.0147 1056.0
29.2103 850.0
29.4059 634.0
29.6015 627.0
29.7971 728.0
29.9927 706.0
30.1883 758.0
30.3839 674.0
30.5795 648.0
30.7751 808.0
30.9706 741.0
31.1662 865.0
31.3618 1033.0
31.5574 823.0
31.753 888.0
31.9486 1019.0
32.1442 842.0
32.3398 644.0
32.5354 524.0
32.731 585.0
32.9266 792.0
33.1222 909.0
33.3178 820.0
33.5134 905.0
33.709 781.0
33.9046 660.0
34.1002 594.0
34.2958 631.0
34.4914 586.0
34.687 547.0
34.8826 530.0
35.0782 505.0
35.2738 576.0
35.4694 608.0
35.665 527.0
35.8605 483.0
36.0561 500.0
36.2517 545.0
36.4473 583.0
36.6429 670.0
36.8385 660.0
37.0341 711.0
37.2297 574.0
37.4253 585.0
37.6209 598.0
37.8165 547.0
38.0121 628.0
38.2077 676.0
38.4033 631.0
38.5989 551.0
38.7945 632.0
38.9901 622.0
39.1857 561.0
39.3813 495.0
39.5769 529.0
39.7725 502.0
39.9681 482.0
40.1637 517.0
40.3593 477.0
40.5548 480.0
40.7504 452.0
40.946 437.0
41.1416 441.0
41.3372 536.0
41.5328 542.0
41.7284 533.0
41.924 478.0
42.1196 492.0
42.3152 452.0
42.5108 471.0
42.7064 446.0
42.902 425.0
43.0976 451.0
43.2932 496.0
43.4888 499.0
43.6844 500.0
43.88 447.0
44.0756 479.0
44.2712 538.0
44.4668 475.0
44.6624 440.0
44.858 370.0
45.0536 387.0
45.2492 406.0
45.4447 426.0
45.6403 402.0
45.8359 394.0
46.0315 396.0
46.2271 387.0
46.4227 432.0
46.6183 399.0
46.8139 378.0
47.0095 446.0
47.2051 415.0
47.4007 385.0
47.5963 410.0
47.7919 375.0
47.9875 416.0
48.1831 366.0
48.3787 386.0
48.5743 390.0
48.7699 395.0
48.9655 390.0
49.1611 412.0
49.3567 373.0
49.5523 363.0
49.7479 368.0
49.9435 386.0
50.139 411.0
50.3346 375.0
50.5302 393.0
50.7258 334.0
50.9214 374.0
51.117 353.0
51.3126 305.0
51.5082 317.0
51.7038 368.0
51.8994 334.0
52.095 321.0
52.2906 382.0
52.4862 342.0
52.6818 314.0
52.8774 340.0
53.073 336.0
53.2686 303.0
53.4642 350.0
53.6598 314.0
53.8554 309.0
54.051 337.0
54.2466 322.0
54.4422 341.0
54.6378 311.0
54.8334 282.0
55.0289 276.0
55.2245 280.0
55.4201 283.0
55.6157 341.0
55.8113 342.0
56.0069 327.0
56.2025 308.0
56.3981 303.0
56.5937 280.0
56.7893 305.0
56.9849 262.0
57.1805 286.0
57.3761 273.0
57.5717 248.0
57.7673 281.0
57.9629 243.0
58.1585 249.0
58.3541 248.0
58.5497 263.0
58.7453 297.0
58.9409 269.0
59.1365 270.0
59.3321 217.0
59.5277 265.0
59.7233 263.0
59.9188 243.0
59.9949 262.0