File: XRD/2025_06_03_Sorbic_Acid_3_60_8min.xy
3.00043 43466.0
3.19603 34560.0
3.39163 26703.0
3.58722 19931.0
3.78282 15047.0
3.97841 10865.0
4.17401 7910.0
4.3696 5396.0
4.5652 3862.0
4.7608 2657.0
4.95639 2289.0
5.15199 2260.0
5.34758 2250.0
5.54318 1821.0
5.73878 1510.0
5.93437 1335.0
6.12997 1277.0
6.32556 1244.0
6.52116 1142.0
6.71676 1048.0
6.91235 1015.0
7.10795 1024.0
7.30354 984.0
7.49914 997.0
7.69474 986.0
7.89033 969.0
8.08593 945.0
8.28152 950.0
8.47712 973.0
8.67271 1022.0
8.86831 1030.0
9.06391 1128.0
9.2595 1090.0
9.4551 1031.0
9.65069 1073.0
9.84629 1074.0
10.0419 1067.0
10.2375 1178.0
10.4331 1181.0
10.6287 1131.0
10.8243 1345.0
11.0199 2557.0
11.2155 13192.0
11.4111 39371.0
11.6067 17685.0
11.8022 3049.0
11.9978 1600.0
12.1934 1477.0
12.389 1437.0
12.5846 1937.0
12.7802 3676.0
12.9758 6807.0
13.1714 10312.0
13.367 1435.0
13.5626 1247.0
13.7582 1222.0
13.9538 1188.0
14.1494 1093.0
14.345 1130.0
14.5406 1005.0
14.7362 1079.0
14.9318 1000.0
15.1274 1063.0
15.323 1036.0
15.5186 1038.0
15.7142 1133.0
15.9098 1525.0
16.1054 2366.0
16.301 1484.0
16.4966 922.0
16.6921 890.0
16.8877 968.0
17.0833 898.0
17.2789 885.0
17.4745 848.0
17.6701 884.0
17.8657 963.0
18.0613 1548.0
18.2569 1302.0
18.4525 1659.0
18.6481 956.0
18.8437 953.0
19.0393 1032.0
19.2349 1228.0
19.4305 1432.0
19.6261 1128.0
19.8217 930.0
20.0173 1016.0
20.2129 1006.0
20.4085 1119.0
20.6041 1281.0
20.7997 1144.0
20.9953 1109.0
21.1909 1165.0
21.3864 1196.0
21.582 1202.0
21.7776 1415.0
21.9732 1671.0
22.1688 2302.0
22.3644 4109.0
22.56 14762.0
22.7556 67404.0
22.9512 73856.0
23.1468 32226.0
23.3424 6225.0
23.538 9649.0
23.7336 6138.0
23.9292 3043.0
24.1248 2142.0
24.3204 2353.0
24.516 4661.0
24.7116 23534.0
24.9072 13979.0
25.1028 4343.0
25.2984 1877.0
25.494 1706.0
25.6896 1708.0
25.8852 1759.0
26.0808 1767.0
26.2763 1728.0
26.4719 2247.0
26.6675 2240.0
26.8631 1598.0
27.0587 1790.0
27.2543 2320.0
27.4499 3134.0
27.6455 14365.0
27.8411 25091.0
28.0367 6914.0
28.2323 1775.0
28.4279 1564.0
28.6235 1432.0
28.8191 1300.0
29.0147 1330.0
29.2103 1215.0
29.4059 1286.0
29.6015 1538.0
29.7971 1477.0
29.9927 1116.0
30.1883 1070.0
30.3839 1010.0
30.5795 991.0
30.7751 988.0
30.9706 1020.0
31.1662 998.0
31.3618 1541.0
31.5574 2765.0
31.753 2045.0
31.9486 1654.0
32.1442 2473.0
32.3398 3245.0
32.5354 2119.0
32.731 1776.0
32.9266 1236.0
33.1222 1137.0
33.3178 1146.0
33.5134 978.0
33.709 1160.0
33.9046 1365.0
34.1002 1134.0
34.2958 863.0
34.4914 869.0
34.687 913.0
34.8826 899.0
35.0782 833.0
35.2738 896.0
35.4694 1307.0
35.665 1889.0
35.8605 3587.0
36.0561 3708.0
36.2517 1236.0
36.4473 959.0
36.6429 994.0
36.8385 1268.0
37.0341 1162.0
37.2297 1010.0
37.4253 805.0
37.6209 835.0
37.8165 891.0
38.0121 787.0
38.2077 819.0
38.4033 817.0
38.5989 860.0
38.7945 996.0
38.9901 1110.0
39.1857 1336.0
39.3813 2158.0
39.5769 1346.0
39.7725 2135.0
39.9681 3284.0
40.1637 2137.0
40.3593 1020.0
40.5548 893.0
40.7504 1024.0
40.946 1231.0
41.1416 1390.0
41.3372 1572.0
41.5328 1250.0
41.7284 839.0
41.924 768.0
42.1196 777.0
42.3152 727.0
42.5108 845.0
42.7064 974.0
42.902 866.0
43.0976 1265.0
43.2932 946.0
43.4888 720.0
43.6844 723.0
43.88 729.0
44.0756 691.0
44.2712 687.0
44.4668 697.0
44.6624 813.0
44.858 835.0
45.0536 1079.0
45.2492 1216.0
45.4447 1207.0
45.6403 1705.0
45.8359 1658.0
46.0315 2473.0
46.2271 1589.0
46.4227 991.0
46.6183 884.0
46.8139 1723.0
47.0095 1350.0
47.2051 809.0
47.4007 818.0
47.5963 930.0
47.7919 932.0
47.9875 924.0
48.1831 910.0
48.3787 1008.0
48.5743 851.0
48.7699 712.0
48.9655 663.0
49.1611 739.0
49.3567 625.0
49.5523 626.0
49.7479 646.0
49.9435 645.0
50.139 665.0
50.3346 627.0
50.5302 626.0
50.7258 662.0
50.9214 724.0
51.117 669.0
51.3126 680.0
51.5082 757.0
51.7038 781.0
51.8994 667.0
52.095 633.0
52.2906 599.0
52.4862 579.0
52.6818 637.0
52.8774 637.0
53.073 619.0
53.2686 669.0
53.4642 740.0
53.6598 953.0
53.8554 1005.0
54.051 1012.0
54.2466 670.0
54.4422 643.0
54.6378 626.0
54.8334 584.0
55.0289 547.0
55.2245 583.0
55.4201 584.0
55.6157 600.0
55.8113 570.0
56.0069 616.0
56.2025 703.0
56.3981 622.0
56.5937 648.0
56.7893 678.0
56.9849 983.0
57.1805 872.0
57.3761 852.0
57.5717 671.0
57.7673 597.0
57.9629 521.0
58.1585 676.0
58.3541 622.0
58.5497 565.0
58.7453 560.0
58.9409 643.0
59.1365 571.0
59.3321 640.0
59.5277 1177.0
59.7233 1083.0
59.9188 584.0
59.9949 535.0