File: XRD/2025_06_03_CeO2_3_60_8min.xy
3.00043 43202.0
3.19603 34405.0
3.39163 26600.0
3.58722 20268.0
3.78282 15172.0
3.97841 10841.0
4.17401 7656.0
4.3696 5280.0
4.5652 3682.0
4.7608 2473.0
4.95639 2131.0
5.15199 1909.0
5.34758 1877.0
5.54318 1397.0
5.73878 1026.0
5.93437 887.0
6.12997 827.0
6.32556 727.0
6.52116 675.0
6.71676 609.0
6.91235 515.0
7.10795 484.0
7.30354 390.0
7.49914 346.0
7.69474 373.0
7.89033 351.0
8.08593 342.0
8.28152 344.0
8.47712 353.0
8.67271 311.0
8.86831 314.0
9.06391 319.0
9.2595 296.0
9.4551 325.0
9.65069 301.0
9.84629 285.0
10.0419 350.0
10.2375 313.0
10.4331 338.0
10.6287 326.0
10.8243 297.0
11.0199 299.0
11.2155 301.0
11.4111 334.0
11.6067 328.0
11.8022 352.0
11.9978 318.0
12.1934 385.0
12.389 332.0
12.5846 325.0
12.7802 320.0
12.9758 336.0
13.1714 307.0
13.367 314.0
13.5626 305.0
13.7582 318.0
13.9538 304.0
14.1494 287.0
14.345 319.0
14.5406 286.0
14.7362 324.0
14.9318 343.0
15.1274 324.0
15.323 333.0
15.5186 331.0
15.7142 295.0
15.9098 312.0
16.1054 325.0
16.301 344.0
16.4966 339.0
16.6921 345.0
16.8877 333.0
17.0833 312.0
17.2789 332.0
17.4745 318.0
17.6701 293.0
17.8657 271.0
18.0613 305.0
18.2569 307.0
18.4525 291.0
18.6481 302.0
18.8437 302.0
19.0393 326.0
19.2349 339.0
19.4305 315.0
19.6261 248.0
19.8217 279.0
20.0173 276.0
20.2129 296.0
20.4085 300.0
20.6041 341.0
20.7997 283.0
20.9953 299.0
21.1909 286.0
21.3864 312.0
21.582 279.0
21.7776 283.0
21.9732 289.0
22.1688 284.0
22.3644 277.0
22.56 278.0
22.7556 301.0
22.9512 298.0
23.1468 273.0
23.3424 274.0
23.538 280.0
23.7336 285.0
23.9292 315.0
24.1248 247.0
24.3204 265.0
24.516 287.0
24.7116 244.0
24.9072 272.0
25.1028 289.0
25.2984 261.0
25.494 281.0
25.6896 298.0
25.8852 316.0
26.0808 248.0
26.2763 279.0
26.4719 308.0
26.6675 311.0
26.8631 263.0
27.0587 260.0
27.2543 282.0
27.4499 300.0
27.6455 338.0
27.8411 364.0
28.0367 387.0
28.2323 605.0
28.4279 1679.0
28.6235 18520.0
28.8191 1366.0
29.0147 479.0
29.2103 424.0
29.4059 341.0
29.6015 339.0
29.7971 326.0
29.9927 295.0
30.1883 279.0
30.3839 300.0
30.5795 300.0
30.7751 258.0
30.9706 269.0
31.1662 279.0
31.3618 257.0
31.5574 272.0
31.753 264.0
31.9486 267.0
32.1442 234.0
32.3398 268.0
32.5354 303.0
32.731 292.0
32.9266 498.0
33.1222 4432.0
33.3178 892.0
33.5134 352.0
33.709 281.0
33.9046 261.0
34.1002 226.0
34.2958 262.0
34.4914 208.0
34.687 249.0
34.8826 243.0
35.0782 230.0
35.2738 233.0
35.4694 206.0
35.665 217.0
35.8605 233.0
36.0561 206.0
36.2517 206.0
36.4473 208.0
36.6429 222.0
36.8385 192.0
37.0341 215.0
37.2297 211.0
37.4253 189.0
37.6209 206.0
37.8165 216.0
38.0121 212.0
38.2077 216.0
38.4033 233.0
38.5989 225.0
38.7945 186.0
38.9901 220.0
39.1857 201.0
39.3813 236.0
39.5769 217.0
39.7725 189.0
39.9681 196.0
40.1637 190.0
40.3593 164.0
40.5548 217.0
40.7504 215.0
40.946 202.0
41.1416 196.0
41.3372 174.0
41.5328 190.0
41.7284 219.0
41.924 213.0
42.1196 198.0
42.3152 198.0
42.5108 194.0
42.7064 225.0
42.902 177.0
43.0976 187.0
43.2932 183.0
43.4888 181.0
43.6844 199.0
43.88 190.0
44.0756 200.0
44.2712 179.0
44.4668 179.0
44.6624 200.0
44.858 179.0
45.0536 195.0
45.2492 169.0
45.4447 201.0
45.6403 191.0
45.8359 190.0
46.0315 219.0
46.2271 206.0
46.4227 218.0
46.6183 218.0
46.8139 227.0
47.0095 326.0
47.2051 419.0
47.4007 1282.0
47.5963 6564.0
47.7919 1010.0
47.9875 371.0
48.1831 277.0
48.3787 227.0
48.5743 205.0
48.7699 228.0
48.9655 215.0
49.1611 200.0
49.3567 185.0
49.5523 221.0
49.7479 231.0
49.9435 208.0
50.139 216.0
50.3346 209.0
50.5302 207.0
50.7258 186.0
50.9214 195.0
51.117 209.0
51.3126 178.0
51.5082 200.0
51.7038 185.0
51.8994 216.0
52.095 191.0
52.2906 186.0
52.4862 174.0
52.6818 165.0
52.8774 190.0
53.073 187.0
53.2686 200.0
53.4642 165.0
53.6598 179.0
53.8554 190.0
54.051 162.0
54.2466 189.0
54.4422 188.0
54.6378 202.0
54.8334 224.0
55.0289 220.0
55.2245 220.0
55.4201 228.0
55.6157 224.0
55.8113 229.0
56.0069 333.0
56.2025 680.0
56.3981 7779.0
56.5937 2925.0
56.7893 381.0
56.9849 210.0
57.1805 218.0
57.3761 185.0
57.5717 198.0
57.7673 188.0
57.9629 170.0
58.1585 210.0
58.3541 176.0
58.5497 164.0
58.7453 236.0
58.9409 275.0
59.1365 1487.0
59.3321 803.0
59.5277 214.0
59.7233 202.0
59.9188 170.0
59.9949 172.0