File: XRD/2025_06_07_aHIF_Lyoph_3_60_22min_XRD.xy
3.00043 135534.0
3.19603 107724.0
3.39163 82723.0
3.58722 63169.0
3.78282 46898.0
3.97841 34453.0
4.17401 24578.0
4.3696 17150.0
4.5652 12114.0
4.7608 8703.0
4.95639 7257.0
5.15199 7060.0
5.34758 6900.0
5.54318 5822.0
5.73878 4675.0
5.93437 4497.0
6.12997 4321.0
6.32556 4090.0
6.52116 3854.0
6.71676 3969.0
6.91235 3851.0
7.10795 3734.0
7.30354 3729.0
7.49914 3759.0
7.69474 3713.0
7.89033 3815.0
8.08593 3715.0
8.28152 3915.0
8.47712 4001.0
8.67271 3942.0
8.86831 4114.0
9.06391 4025.0
9.2595 3989.0
9.4551 4169.0
9.65069 4011.0
9.84629 3957.0
10.0419 3964.0
10.2375 3807.0
10.4331 3774.0
10.6287 3724.0
10.8243 3660.0
11.0199 3645.0
11.2155 3606.0
11.4111 3622.0
11.6067 3600.0
11.8022 3508.0
11.9978 3497.0
12.1934 3328.0
12.389 3464.0
12.5846 3296.0
12.7802 3315.0
12.9758 3345.0
13.1714 3295.0
13.367 3296.0
13.5626 3414.0
13.7582 3401.0
13.9538 3449.0
14.1494 3519.0
14.345 3571.0
14.5406 3562.0
14.7362 3638.0
14.9318 3799.0
15.1274 3837.0
15.323 3909.0
15.5186 3965.0
15.7142 4007.0
15.9098 4250.0
16.1054 4150.0
16.301 4474.0
16.4966 4395.0
16.6921 4606.0
16.8877 4860.0
17.0833 4856.0
17.2789 5107.0
17.4745 5228.0
17.6701 5586.0
17.8657 5548.0
18.0613 5864.0
18.2569 6020.0
18.4525 6240.0
18.6481 6547.0
18.8437 6836.0
19.0393 6901.0
19.2349 7168.0
19.4305 6644.0
19.6261 6837.0
19.8217 6510.0
20.0173 6368.0
20.2129 6391.0
20.4085 6290.0
20.6041 6046.0
20.7997 6049.0
20.9953 5983.0
21.1909 5892.0
21.3864 5597.0
21.582 5674.0
21.7776 5535.0
21.9732 5410.0
22.1688 5203.0
22.3644 5138.0
22.56 5009.0
22.7556 5001.0
22.9512 5009.0
23.1468 4966.0
23.3424 4948.0
23.538 4880.0
23.7336 4700.0
23.9292 4749.0
24.1248 4666.0
24.3204 4397.0
24.516 4443.0
24.7116 4184.0
24.9072 4284.0
25.1028 4134.0
25.2984 4039.0
25.494 4098.0
25.6896 3896.0
25.8852 3828.0
26.0808 3850.0
26.2763 3758.0
26.4719 3648.0
26.6675 3555.0
26.8631 3538.0
27.0587 3461.0
27.2543 3331.0
27.4499 3253.0
27.6455 3368.0
27.8411 3203.0
28.0367 3117.0
28.2323 3266.0
28.4279 3098.0
28.6235 3101.0
28.8191 3097.0
29.0147 2919.0
29.2103 2857.0
29.4059 2795.0
29.6015 2834.0
29.7971 2818.0
29.9927 2791.0
30.1883 2684.0
30.3839 2722.0
30.5795 2740.0
30.7751 2569.0
30.9706 2580.0
31.1662 2507.0
31.3618 2580.0
31.5574 2570.0
31.753 2579.0
31.9486 2504.0
32.1442 2492.0
32.3398 2393.0
32.5354 2412.0
32.731 2334.0
32.9266 2388.0
33.1222 2346.0
33.3178 2346.0
33.5134 2357.0
33.709 2350.0
33.9046 2278.0
34.1002 2240.0
34.2958 2269.0
34.4914 2325.0
34.687 2242.0
34.8826 2261.0
35.0782 2226.0
35.2738 2137.0
35.4694 2246.0
35.665 2107.0
35.8605 2177.0
36.0561 2163.0
36.2517 2066.0
36.4473 2124.0
36.6429 2067.0
36.8385 2059.0
37.0341 2050.0
37.2297 2121.0
37.4253 2125.0
37.6209 2096.0
37.8165 1999.0
38.0121 2044.0
38.2077 2055.0
38.4033 2058.0
38.5989 1991.0
38.7945 1949.0
38.9901 2021.0
39.1857 1942.0
39.3813 1937.0
39.5769 1936.0
39.7725 1963.0
39.9681 1942.0
40.1637 1911.0
40.3593 1871.0
40.5548 1830.0
40.7504 1891.0
40.946 1879.0
41.1416 1867.0
41.3372 1914.0
41.5328 1714.0
41.7284 1859.0
41.924 1811.0
42.1196 1775.0
42.3152 1811.0
42.5108 1705.0
42.7064 1670.0
42.902 1712.0
43.0976 1764.0
43.2932 1709.0
43.4888 1744.0
43.6844 1625.0
43.88 1646.0
44.0756 1672.0
44.2712 1706.0
44.4668 1645.0
44.6624 1611.0
44.858 1591.0
45.0536 1649.0
45.2492 1619.0
45.4447 1581.0
45.6403 1480.0
45.8359 1539.0
46.0315 1526.0
46.2271 1527.0
46.4227 1493.0
46.6183 1459.0
46.8139 1470.0
47.0095 1404.0
47.2051 1448.0
47.4007 1393.0
47.5963 1376.0
47.7919 1421.0
47.9875 1394.0
48.1831 1383.0
48.3787 1336.0
48.5743 1356.0
48.7699 1316.0
48.9655 1288.0
49.1611 1333.0
49.3567 1279.0
49.5523 1326.0
49.7479 1306.0
49.9435 1314.0
50.139 1263.0
50.3346 1247.0
50.5302 1257.0
50.7258 1285.0
50.9214 1305.0
51.117 1295.0
51.3126 1211.0
51.5082 1293.0
51.7038 1212.0
51.8994 1262.0
52.095 1254.0
52.2906 1146.0
52.4862 1159.0
52.6818 1173.0
52.8774 1156.0
53.073 1090.0
53.2686 1055.0
53.4642 1116.0
53.6598 1132.0
53.8554 1078.0
54.051 1081.0
54.2466 1083.0
54.4422 1050.0
54.6378 1065.0
54.8334 1042.0
55.0289 1090.0
55.2245 1018.0
55.4201 1020.0
55.6157 1068.0
55.8113 1061.0
56.0069 1096.0
56.2025 1074.0
56.3981 985.0
56.5937 967.0
56.7893 925.0
56.9849 984.0
57.1805 970.0
57.3761 886.0
57.5717 980.0
57.7673 918.0
57.9629 898.0
58.1585 939.0
58.3541 940.0
58.5497 917.0
58.7453 882.0
58.9409 830.0
59.1365 892.0
59.3321 890.0
59.5277 871.0
59.7233 845.0
59.9188 868.0
59.9949 847.0