File: XRD/2025_06_03_CBD_Sorbic_Acid_Slurry.xy
10.0054 1697.0
10.2445 2385.0
10.4836 4074.0
10.7226 2828.0
10.9617 3866.0
11.2007 5478.0
11.4398 7427.0
11.6789 5720.0
11.9179 2326.0
12.157 4831.0
12.3961 3049.0
12.6351 2391.0
12.8742 2165.0
13.1132 1665.0
13.3523 1572.0
13.5914 1741.0
13.8304 1446.0
14.0695 1490.0
14.3085 2051.0
14.5476 3333.0
14.7867 2941.0
15.0257 3339.0
15.2648 5226.0
15.5039 8112.0
15.7429 12109.0
15.982 3458.0
16.221 6724.0
16.4601 5933.0
16.6992 4063.0
16.9382 3369.0
17.1773 6911.0
17.4163 5413.0
17.6554 2496.0
17.8945 2593.0
18.1335 3341.0
18.3726 8155.0
18.6117 14358.0
18.8507 7983.0
19.0898 8653.0
19.3288 7905.0
19.5679 3234.0
19.807 3534.0
20.046 3161.0
20.2851 3791.0
20.5241 7953.0
20.7632 9392.0
21.0023 16133.0
21.2413 10284.0
21.4804 3406.0
21.7195 2579.0
21.9585 3206.0
22.1976 3891.0
22.4366 2774.0
22.6757 2814.0
22.9148 4526.0
23.1538 3325.0
23.3929 3850.0
23.6319 3235.0
23.871 2303.0
24.1101 3550.0
24.3491 4985.0
24.5882 2367.0
24.8273 1716.0
25.0663 1765.0
25.3054 2261.0
25.5444 2422.0
25.7835 3693.0
26.0226 3764.0
26.2616 3928.0
26.5007 2376.0
26.7398 1655.0
26.9788 1579.0
27.2179 2076.0
27.4569 2251.0
27.696 2080.0
27.9351 2311.0
28.1741 2432.0
28.4132 2819.0
28.6522 2141.0
28.8913 2517.0
29.1304 2137.0
29.3694 1651.0
29.6085 1580.0
29.8476 1636.0
30.0866 1833.0
30.3257 1696.0
30.5647 1577.0
30.8038 1874.0
31.0429 1717.0
31.2819 2306.0
31.521 1994.0
31.76 2039.0
31.9991 2258.0
32.2382 1542.0
32.4772 1418.0
32.7163 1367.0
32.9554 1940.0
33.1944 1970.0
33.4335 1929.0
33.6725 1914.0
33.9116 1488.0
34.1507 1340.0
34.3897 1405.0
34.6288 1303.0
34.8678 1163.0
35.1069 1264.0
35.346 1443.0
35.585 1400.0
35.8241 1106.0
36.0632 1165.0
36.3022 1327.0
36.5413 1439.0
36.7803 1521.0
37.0194 1533.0
37.2585 1356.0
37.4975 1349.0
37.7366 1368.0
37.9756 1495.0
38.2147 1601.0
38.4538 1398.0
38.6928 1404.0
38.9319 1556.0
39.171 1304.0
39.41 1254.0
39.6491 1225.0
39.8881 1119.0
40.1272 1255.0
40.3663 1149.0
40.6053 1114.0
40.8444 1061.0
41.0835 1087.0
41.3225 1229.0
41.5616 1251.0
41.8006 1205.0
42.0397 1131.0
42.2788 1063.0
42.5178 1053.0
42.7569 1025.0
42.9959 1076.0
43.235 1074.0
43.4741 1120.0
43.7131 1122.0
43.9522 1067.0
44.1913 1112.0
44.4303 1099.0
44.6694 982.0
44.9084 931.0
45.1475 959.0
45.3866 1051.0
45.6256 869.0
45.8647 869.0
46.1037 975.0
46.3428 1080.0
46.5819 997.0
46.8209 943.0
47.06 1005.0
47.2991 1085.0
47.5381 940.0
47.7772 904.0
48.0162 933.0
48.2553 899.0
48.4944 918.0
48.7334 979.0
48.9725 924.0
49.2115 886.0
49.4506 874.0
49.6897 877.0
49.9287 915.0
50.1678 920.0
50.4069 935.0
50.6459 866.0
50.885 850.0
51.124 783.0
51.3631 815.0
51.6022 813.0
51.8412 765.0
52.0803 828.0
52.3194 751.0
52.5584 753.0
52.7975 813.0
53.0365 802.0
53.2756 794.0
53.5147 790.0
53.7537 814.0
53.9928 761.0
54.2318 767.0
54.4709 739.0
54.71 764.0
54.949 701.0
55.1881 705.0
55.4272 759.0
55.6662 787.0
55.9053 821.0
56.1443 755.0
56.3834 712.0
56.6225 725.0
56.8615 628.0
57.1006 616.0
57.3396 692.0
57.5787 633.0
57.8178 648.0
58.0568 657.0
58.2959 616.0
58.535 621.0
58.774 638.0
59.0131 631.0
59.2521 590.0
59.4912 584.0
59.7303 560.0
59.9693 561.0
60.2084 542.0
60.4474 556.0
60.6865 523.0
60.9256 558.0
61.1646 542.0
61.4037 530.0
61.6428 552.0
61.8818 501.0
62.1209 498.0
62.3599 488.0
62.599 525.0
62.8381 522.0
63.0771 553.0
63.3162 491.0
63.5552 499.0
63.7943 465.0
64.0334 538.0
64.2724 502.0
64.5115 479.0
64.7506 488.0
64.9896 491.0
65.2287 504.0
65.4677 533.0
65.7068 477.0
65.9459 510.0
66.1849 459.0
66.424 458.0
66.6631 454.0
66.9021 496.0
67.1412 472.0
67.3802 443.0
67.6193 420.0
67.8584 485.0
68.0974 471.0
68.3365 496.0
68.5755 456.0
68.8146 447.0
69.0537 421.0
69.2927 480.0
69.5318 453.0
69.7709 444.0
70.0099 464.0
70.249 479.0
70.488 450.0
70.7271 459.0
70.9662 451.0
71.2052 392.0
71.4443 504.0
71.6833 436.0
71.9224 443.0
72.1615 427.0
72.4005 440.0
72.6396 444.0
72.8787 437.0
73.1177 416.0
73.3568 457.0
73.5958 445.0
73.8349 456.0
74.074 423.0
74.313 449.0
74.5521 442.0
74.7911 451.0
75.0302 455.0
75.2693 455.0
75.5083 462.0
75.7474 438.0
75.9865 457.0
76.2255 478.0
76.4646 478.0
76.7036 446.0
76.9427 477.0
77.1818 495.0
77.4208 398.0
77.6599 468.0
77.899 435.0
78.138 412.0
78.3771 454.0
78.6161 441.0
78.8552 480.0
79.0943 440.0
79.3333 413.0
79.5724 462.0
79.8114 451.0
79.9962 398.0