File: XRD/2025_06_07_aNIF_3_60_22min.xy
3.00043 133188.0
3.19603 105935.0
3.39163 81387.0
3.58722 61688.0
3.78282 45966.0
3.97841 33360.0
4.17401 23523.0
4.3696 16252.0
4.5652 11152.0
4.7608 8242.0
4.95639 6802.0
5.15199 6319.0
5.34758 6193.0
5.54318 4966.0
5.73878 3641.0
5.93437 3255.0
6.12997 2913.0
6.32556 2749.0
6.52116 2336.0
6.71676 2031.0
6.91235 1808.0
7.10795 1664.0
7.30354 1477.0
7.49914 1337.0
7.69474 1346.0
7.89033 1190.0
8.08593 1201.0
8.28152 1148.0
8.47712 1122.0
8.67271 1083.0
8.86831 1077.0
9.06391 1037.0
9.2595 1121.0
9.4551 1210.0
9.65069 1286.0
9.84629 1889.0
10.0419 4649.0
10.2375 12154.0
10.4331 3096.0
10.6287 1994.0
10.8243 3440.0
11.0199 1955.0
11.2155 1212.0
11.4111 1120.0
11.6067 1117.0
11.8022 1136.0
11.9978 1059.0
12.1934 1040.0
12.389 1089.0
12.5846 1123.0
12.7802 1127.0
12.9758 1579.0
13.1714 2569.0
13.367 1266.0
13.5626 1100.0
13.7582 1027.0
13.9538 1037.0
14.1494 1068.0
14.345 1566.0
14.5406 2354.0
14.7362 1468.0
14.9318 1183.0
15.1274 1214.0
15.323 981.0
15.5186 989.0
15.7142 1084.0
15.9098 1471.0
16.1054 3492.0
16.301 6664.0
16.4966 5067.0
16.6921 2921.0
16.8877 1136.0
17.0833 1053.0
17.2789 1034.0
17.4745 1128.0
17.6701 1659.0
17.8657 1120.0
18.0613 956.0
18.2569 972.0
18.4525 912.0
18.6481 945.0
18.8437 914.0
19.0393 960.0
19.2349 1143.0
19.4305 1718.0
19.6261 1770.0
19.8217 1116.0
20.0173 1118.0
20.2129 1588.0
20.4085 3815.0
20.6041 3552.0
20.7997 1574.0
20.9953 1404.0
21.1909 1085.0
21.3864 1176.0
21.582 1651.0
21.7776 2893.0
21.9732 2696.0
22.1688 1606.0
22.3644 1292.0
22.56 1331.0
22.7556 1582.0
22.9512 3469.0
23.1468 11150.0
23.3424 8984.0
23.538 1873.0
23.7336 1384.0
23.9292 1355.0
24.1248 1477.0
24.3204 2891.0
24.516 6329.0
24.7116 2316.0
24.9072 1471.0
25.1028 2126.0
25.2984 4605.0
25.494 3420.0
25.6896 1770.0
25.8852 1478.0
26.0808 2005.0
26.2763 5254.0
26.4719 6753.0
26.6675 2027.0
26.8631 1381.0
27.0587 1542.0
27.2543 2019.0
27.4499 1902.0
27.6455 1572.0
27.8411 1248.0
28.0367 1129.0
28.2323 1253.0
28.4279 1193.0
28.6235 1131.0
28.8191 1206.0
29.0147 1808.0
29.2103 1981.0
29.4059 3159.0
29.6015 2455.0
29.7971 1383.0
29.9927 2330.0
30.1883 2595.0
30.3839 1743.0
30.5795 1303.0
30.7751 1407.0
30.9706 1498.0
31.1662 1050.0
31.3618 1058.0
31.5574 1078.0
31.753 1335.0
31.9486 2060.0
32.1442 1428.0
32.3398 1290.0
32.5354 2015.0
32.731 2051.0
32.9266 1440.0
33.1222 1150.0
33.3178 1386.0
33.5134 1757.0
33.709 1663.0
33.9046 1284.0
34.1002 1049.0
34.2958 1104.0
34.4914 1253.0
34.687 1608.0
34.8826 1370.0
35.0782 1074.0
35.2738 1058.0
35.4694 954.0
35.665 1115.0
35.8605 1610.0
36.0561 1605.0
36.2517 1100.0
36.4473 1032.0
36.6429 1255.0
36.8385 1478.0
37.0341 1192.0
37.2297 1140.0
37.4253 1265.0
37.6209 1175.0
37.8165 1021.0
38.0121 1019.0
38.2077 1029.0
38.4033 1085.0
38.5989 982.0
38.7945 959.0
38.9901 1118.0
39.1857 1151.0
39.3813 1533.0
39.5769 1913.0
39.7725 1806.0
39.9681 1492.0
40.1637 1074.0
40.3593 1199.0
40.5548 1243.0
40.7504 1336.0
40.946 1263.0
41.1416 1144.0
41.3372 1081.0
41.5328 1159.0
41.7284 1171.0
41.924 1063.0
42.1196 1259.0
42.3152 1110.0
42.5108 1024.0
42.7064 1090.0
42.902 1147.0
43.0976 1206.0
43.2932 972.0
43.4888 875.0
43.6844 921.0
43.88 903.0
44.0756 1009.0
44.2712 1308.0
44.4668 1189.0
44.6624 1117.0
44.858 980.0
45.0536 992.0
45.2492 994.0
45.4447 980.0
45.6403 1027.0
45.8359 1130.0
46.0315 1000.0
46.2271 904.0
46.4227 937.0
46.6183 946.0
46.8139 983.0
47.0095 1026.0
47.2051 1264.0
47.4007 1345.0
47.5963 1364.0
47.7919 1197.0
47.9875 1103.0
48.1831 1001.0
48.3787 918.0
48.5743 901.0
48.7699 972.0
48.9655 907.0
49.1611 903.0
49.3567 918.0
49.5523 910.0
49.7479 1125.0
49.9435 1276.0
50.139 1066.0
50.3346 971.0
50.5302 956.0
50.7258 933.0
50.9214 954.0
51.117 804.0
51.3126 864.0
51.5082 844.0
51.7038 843.0
51.8994 882.0
52.095 847.0
52.2906 828.0
52.4862 818.0
52.6818 909.0
52.8774 857.0
53.073 810.0
53.2686 790.0
53.4642 783.0
53.6598 783.0
53.8554 816.0
54.051 863.0
54.2466 869.0
54.4422 843.0
54.6378 820.0
54.8334 750.0
55.0289 789.0
55.2245 793.0
55.4201 820.0
55.6157 781.0
55.8113 816.0
56.0069 829.0
56.2025 774.0
56.3981 787.0
56.5937 767.0
56.7893 745.0
56.9849 710.0
57.1805 687.0
57.3761 699.0
57.5717 685.0
57.7673 703.0
57.9629 614.0
58.1585 668.0
58.3541 637.0
58.5497 654.0
58.7453 689.0
58.9409 669.0
59.1365 641.0
59.3321 695.0
59.5277 705.0
59.7233 630.0
59.9188 654.0
59.9949 583.0