File: XRD/2025_06_03_CBN_SA_Slurry_3_60_8min.xy
3.00043 43202.0
3.19603 34379.0
3.39163 26682.0
3.58722 20680.0
3.78282 15739.0
3.97841 12010.0
4.17401 10366.0
4.3696 8562.0
4.5652 5419.0
4.7608 5691.0
4.95639 9501.0
5.15199 15232.0
5.34758 6420.0
5.54318 5520.0
5.73878 4931.0
5.93437 2667.0
6.12997 2035.0
6.32556 1719.0
6.52116 1485.0
6.71676 1345.0
6.91235 1207.0
7.10795 1208.0
7.30354 1209.0
7.49914 1168.0
7.69474 1289.0
7.89033 1222.0
8.08593 1032.0
8.28152 1071.0
8.47712 1269.0
8.67271 1393.0
8.86831 1416.0
9.06391 1738.0
9.2595 1535.0
9.4551 1359.0
9.65069 1316.0
9.84629 1550.0
10.0419 2394.0
10.2375 3061.0
10.4331 2083.0
10.6287 2594.0
10.8243 2325.0
11.0199 2892.0
11.2155 3962.0
11.4111 3991.0
11.6067 2659.0
11.8022 2059.0
11.9978 1823.0
12.1934 2260.0
12.389 4727.0
12.5846 4625.0
12.7802 2371.0
12.9758 2193.0
13.1714 1542.0
13.367 1807.0
13.5626 1551.0
13.7582 1689.0
13.9538 1581.0
14.1494 1987.0
14.345 3290.0
14.5406 3218.0
14.7362 1955.0
14.9318 1554.0
15.1274 2152.0
15.323 2519.0
15.5186 2020.0
15.7142 1949.0
15.9098 3050.0
16.1054 5601.0
16.301 4478.0
16.4966 2074.0
16.6921 2015.0
16.8877 2525.0
17.0833 2321.0
17.2789 1796.0
17.4745 2075.0
17.6701 2816.0
17.8657 3549.0
18.0613 4987.0
18.2569 6295.0
18.4525 6271.0
18.6481 3333.0
18.8437 2512.0
19.0393 3466.0
19.2349 3493.0
19.4305 3039.0
19.6261 2922.0
19.8217 3189.0
20.0173 2867.0
20.2129 3152.0
20.4085 5336.0
20.6041 5095.0
20.7997 3041.0
20.9953 2530.0
21.1909 2548.0
21.3864 3406.0
21.582 4105.0
21.7776 4116.0
21.9732 3067.0
22.1688 2716.0
22.3644 3005.0
22.56 2160.0
22.7556 2064.0
22.9512 1966.0
23.1468 1750.0
23.3424 1533.0
23.538 1468.0
23.7336 1640.0
23.9292 1959.0
24.1248 2156.0
24.3204 1610.0
24.516 1805.0
24.7116 2325.0
24.9072 1901.0
25.1028 1794.0
25.2984 1687.0
25.494 1585.0
25.6896 1664.0
25.8852 1448.0
26.0808 1251.0
26.2763 1355.0
26.4719 1203.0
26.6675 1175.0
26.8631 1359.0
27.0587 1418.0
27.2543 1471.0
27.4499 1267.0
27.6455 1289.0
27.8411 1143.0
28.0367 1112.0
28.2323 1124.0
28.4279 1122.0
28.6235 1320.0
28.8191 1238.0
29.0147 1124.0
29.2103 1028.0
29.4059 881.0
29.6015 843.0
29.7971 972.0
29.9927 1028.0
30.1883 907.0
30.3839 862.0
30.5795 1017.0
30.7751 1035.0
30.9706 1111.0
31.1662 837.0
31.3618 787.0
31.5574 806.0
31.753 835.0
31.9486 931.0
32.1442 1044.0
32.3398 901.0
32.5354 896.0
32.731 1029.0
32.9266 805.0
33.1222 779.0
33.3178 706.0
33.5134 714.0
33.709 693.0
33.9046 781.0
34.1002 904.0
34.2958 833.0
34.4914 793.0
34.687 852.0
34.8826 870.0
35.0782 842.0
35.2738 712.0
35.4694 715.0
35.665 696.0
35.8605 749.0
36.0561 681.0
36.2517 707.0
36.4473 827.0
36.6429 797.0
36.8385 732.0
37.0341 777.0
37.2297 906.0
37.4253 1015.0
37.6209 892.0
37.8165 812.0
38.0121 827.0
38.2077 909.0
38.4033 793.0
38.5989 735.0
38.7945 696.0
38.9901 740.0
39.1857 661.0
39.3813 662.0
39.5769 711.0
39.7725 730.0
39.9681 743.0
40.1637 732.0
40.3593 661.0
40.5548 732.0
40.7504 730.0
40.946 797.0
41.1416 654.0
41.3372 728.0
41.5328 726.0
41.7284 794.0
41.924 691.0
42.1196 726.0
42.3152 779.0
42.5108 748.0
42.7064 712.0
42.902 740.0
43.0976 694.0
43.2932 675.0
43.4888 636.0
43.6844 601.0
43.88 624.0
44.0756 621.0
44.2712 653.0
44.4668 632.0
44.6624 604.0
44.858 614.0
45.0536 615.0
45.2492 562.0
45.4447 577.0
45.6403 655.0
45.8359 616.0
46.0315 603.0
46.2271 584.0
46.4227 555.0
46.6183 580.0
46.8139 542.0
47.0095 531.0
47.2051 559.0
47.4007 543.0
47.5963 549.0
47.7919 520.0
47.9875 468.0
48.1831 540.0
48.3787 541.0
48.5743 501.0
48.7699 511.0
48.9655 542.0
49.1611 511.0
49.3567 529.0
49.5523 524.0
49.7479 483.0
49.9435 457.0
50.139 514.0
50.3346 500.0
50.5302 474.0
50.7258 497.0
50.9214 460.0
51.117 463.0
51.3126 499.0
51.5082 491.0
51.7038 472.0
51.8994 440.0
52.095 471.0
52.2906 415.0
52.4862 469.0
52.6818 432.0
52.8774 431.0
53.073 448.0
53.2686 429.0
53.4642 395.0
53.6598 391.0
53.8554 404.0
54.051 408.0
54.2466 415.0
54.4422 419.0
54.6378 401.0
54.8334 420.0
55.0289 368.0
55.2245 360.0
55.4201 399.0
55.6157 420.0
55.8113 419.0
56.0069 401.0
56.2025 413.0
56.3981 320.0
56.5937 366.0
56.7893 355.0
56.9849 336.0
57.1805 326.0
57.3761 364.0
57.5717 338.0
57.7673 301.0
57.9629 332.0
58.1585 343.0
58.3541 345.0
58.5497 354.0
58.7453 354.0
58.9409 340.0
59.1365 297.0
59.3321 311.0
59.5277 361.0
59.7233 312.0
59.9188 301.0
59.9949 308.0