File: XRD/2025_06_12_aFEL_DSC_3_60_22m_pXRD.xy
3.00043 134532.0
3.19603 106948.0
3.39163 82455.0
3.58722 62628.0
3.78282 46563.0
3.97841 33601.0
4.17401 24293.0
4.3696 16651.0
4.5652 11598.0
4.7608 8181.0
4.95639 6791.0
5.15199 6580.0
5.34758 6279.0
5.54318 4937.0
5.73878 3870.0
5.93437 3370.0
6.12997 3104.0
6.32556 2720.0
6.52116 2514.0
6.71676 2303.0
6.91235 2023.0
7.10795 1873.0
7.30354 1807.0
7.49914 1737.0
7.69474 1714.0
7.89033 1641.0
8.08593 1695.0
8.28152 1633.0
8.47712 1686.0
8.67271 1668.0
8.86831 1761.0
9.06391 1760.0
9.2595 1885.0
9.4551 1864.0
9.65069 2042.0
9.84629 2072.0
10.0419 2213.0
10.2375 2329.0
10.4331 2353.0
10.6287 2540.0
10.8243 2519.0
11.0199 2535.0
11.2155 2698.0
11.4111 2638.0
11.6067 2652.0
11.8022 2790.0
11.9978 2814.0
12.1934 2635.0
12.389 2647.0
12.5846 2570.0
12.7802 2476.0
12.9758 2372.0
13.1714 2358.0
13.367 2387.0
13.5626 2254.0
13.7582 2118.0
13.9538 2131.0
14.1494 2127.0
14.345 2100.0
14.5406 2078.0
14.7362 2087.0
14.9318 2066.0
15.1274 2004.0
15.323 2005.0
15.5186 1992.0
15.7142 1932.0
15.9098 1997.0
16.1054 1981.0
16.301 1965.0
16.4966 1948.0
16.6921 1959.0
16.8877 1966.0
17.0833 2024.0
17.2789 2117.0
17.4745 2116.0
17.6701 2019.0
17.8657 2134.0
18.0613 2221.0
18.2569 2259.0
18.4525 2257.0
18.6481 2287.0
18.8437 2368.0
19.0393 2350.0
19.2349 2436.0
19.4305 2518.0
19.6261 2489.0
19.8217 2659.0
20.0173 2682.0
20.2129 2712.0
20.4085 2652.0
20.6041 2729.0
20.7997 2805.0
20.9953 2792.0
21.1909 2941.0
21.3864 2814.0
21.582 2906.0
21.7776 2949.0
21.9732 2956.0
22.1688 3001.0
22.3644 2881.0
22.56 3000.0
22.7556 2883.0
22.9512 2885.0
23.1468 2970.0
23.3424 2906.0
23.538 2919.0
23.7336 2815.0
23.9292 2795.0
24.1248 2922.0
24.3204 2831.0
24.516 2763.0
24.7116 2722.0
24.9072 2617.0
25.1028 2736.0
25.2984 2546.0
25.494 2589.0
25.6896 2524.0
25.8852 2413.0
26.0808 2396.0
26.2763 2364.0
26.4719 2293.0
26.6675 2340.0
26.8631 2206.0
27.0587 2214.0
27.2543 2221.0
27.4499 2052.0
27.6455 1983.0
27.8411 2027.0
28.0367 2002.0
28.2323 1980.0
28.4279 1920.0
28.6235 1906.0
28.8191 1858.0
29.0147 1841.0
29.2103 1828.0
29.4059 1810.0
29.6015 1796.0
29.7971 1704.0
29.9927 1810.0
30.1883 1639.0
30.3839 1692.0
30.5795 1784.0
30.7751 1565.0
30.9706 1612.0
31.1662 1672.0
31.3618 1546.0
31.5574 1557.0
31.753 1619.0
31.9486 1562.0
32.1442 1511.0
32.3398 1498.0
32.5354 1459.0
32.731 1493.0
32.9266 1486.0
33.1222 1445.0
33.3178 1426.0
33.5134 1372.0
33.709 1354.0
33.9046 1447.0
34.1002 1443.0
34.2958 1384.0
34.4914 1339.0
34.687 1293.0
34.8826 1346.0
35.0782 1241.0
35.2738 1360.0
35.4694 1308.0
35.665 1371.0
35.8605 1258.0
36.0561 1245.0
36.2517 1288.0
36.4473 1271.0
36.6429 1266.0
36.8385 1282.0
37.0341 1299.0
37.2297 1253.0
37.4253 1183.0
37.6209 1258.0
37.8165 1229.0
38.0121 1249.0
38.2077 1236.0
38.4033 1235.0
38.5989 1235.0
38.7945 1208.0
38.9901 1208.0
39.1857 1165.0
39.3813 1143.0
39.5769 1151.0
39.7725 1120.0
39.9681 1145.0
40.1637 1184.0
40.3593 1155.0
40.5548 1149.0
40.7504 1185.0
40.946 1103.0
41.1416 1144.0
41.3372 1121.0
41.5328 1127.0
41.7284 1121.0
41.924 1144.0
42.1196 1021.0
42.3152 1134.0
42.5108 1065.0
42.7064 1113.0
42.902 1106.0
43.0976 1055.0
43.2932 1085.0
43.4888 1070.0
43.6844 1024.0
43.88 1064.0
44.0756 1094.0
44.2712 1008.0
44.4668 1001.0
44.6624 1038.0
44.858 1034.0
45.0536 1019.0
45.2492 1038.0
45.4447 1044.0
45.6403 1045.0
45.8359 986.0
46.0315 1025.0
46.2271 982.0
46.4227 1003.0
46.6183 963.0
46.8139 1025.0
47.0095 1047.0
47.2051 1005.0
47.4007 974.0
47.5963 965.0
47.7919 924.0
47.9875 970.0
48.1831 957.0
48.3787 944.0
48.5743 956.0
48.7699 931.0
48.9655 918.0
49.1611 921.0
49.3567 898.0
49.5523 866.0
49.7479 901.0
49.9435 889.0
50.139 879.0
50.3346 903.0
50.5302 917.0
50.7258 850.0
50.9214 895.0
51.117 866.0
51.3126 782.0
51.5082 843.0
51.7038 831.0
51.8994 869.0
52.095 806.0
52.2906 752.0
52.4862 779.0
52.6818 737.0
52.8774 796.0
53.073 777.0
53.2686 739.0
53.4642 728.0
53.6598 748.0
53.8554 792.0
54.051 774.0
54.2466 798.0
54.4422 740.0
54.6378 697.0
54.8334 684.0
55.0289 706.0
55.2245 705.0
55.4201 747.0
55.6157 730.0
55.8113 725.0
56.0069 695.0
56.2025 669.0
56.3981 721.0
56.5937 667.0
56.7893 677.0
56.9849 708.0
57.1805 640.0
57.3761 647.0
57.5717 555.0
57.7673 662.0
57.9629 627.0
58.1585 628.0
58.3541 638.0
58.5497 629.0
58.7453 615.0
58.9409 656.0
59.1365 611.0
59.3321 590.0
59.5277 598.0
59.7233 580.0
59.9188 638.0
59.9949 607.0