File: XRD/2025_06_07_aHIF_Lyoph_Powder_5_90_2m.xy
5.00543 108.0
5.29883 101.0
5.59222 84.0
5.88561 82.0
6.17901 68.0
6.4724 61.0
6.7658 50.0
7.05919 56.0
7.35258 53.0
7.64598 71.0
7.93937 64.0
8.23277 63.0
8.52616 49.0
8.81955 68.0
9.11295 76.0
9.40634 55.0
9.69974 54.0
9.99313 71.0
10.2865 51.0
10.5799 67.0
10.8733 57.0
11.1667 53.0
11.4601 64.0
11.7535 62.0
12.0469 55.0
12.3403 61.0
12.6337 53.0
12.9271 63.0
13.2205 64.0
13.5139 46.0
13.8072 64.0
14.1006 54.0
14.394 58.0
14.6874 72.0
14.9808 61.0
15.2742 75.0
15.5676 72.0
15.861 74.0
16.1544 91.0
16.4478 68.0
16.7412 72.0
17.0346 90.0
17.328 85.0
17.6214 82.0
17.9148 100.0
18.2082 88.0
18.5016 126.0
18.7949 108.0
19.0883 125.0
19.3817 134.0
19.6751 109.0
19.9685 115.0
20.2619 112.0
20.5553 106.0
20.8487 113.0
21.1421 100.0
21.4355 102.0
21.7289 100.0
22.0223 104.0
22.3157 84.0
22.6091 95.0
22.9025 93.0
23.1959 78.0
23.4892 70.0
23.7826 84.0
24.076 60.0
24.3694 76.0
24.6628 83.0
24.9562 82.0
25.2496 69.0
25.543 68.0
25.8364 71.0
26.1298 79.0
26.4232 70.0
26.7166 55.0
27.01 72.0
27.3034 49.0
27.5968 74.0
27.8902 42.0
28.1835 70.0
28.4769 62.0
28.7703 56.0
29.0637 60.0
29.3571 41.0
29.6505 60.0
29.9439 48.0
30.2373 48.0
30.5307 46.0
30.8241 38.0
31.1175 52.0
31.4109 43.0
31.7043 39.0
31.9977 49.0
32.2911 42.0
32.5845 39.0
32.8779 37.0
33.1712 52.0
33.4646 43.0
33.758 41.0
34.0514 34.0
34.3448 36.0
34.6382 46.0
34.9316 34.0
35.225 33.0
35.5184 27.0
35.8118 40.0
36.1052 29.0
36.3986 38.0
36.692 38.0
36.9854 34.0
37.2788 33.0
37.5722 39.0
37.8655 32.0
38.1589 32.0
38.4523 34.0
38.7457 35.0
39.0391 40.0
39.3325 41.0
39.6259 36.0
39.9193 38.0
40.2127 37.0
40.5061 33.0
40.7995 25.0
41.0929 30.0
41.3863 22.0
41.6797 35.0
41.9731 30.0
42.2665 24.0
42.5598 25.0
42.8532 20.0
43.1466 29.0
43.44 25.0
43.7334 29.0
44.0268 21.0
44.3202 26.0
44.6136 29.0
44.907 31.0
45.2004 33.0
45.4938 28.0
45.7872 29.0
46.0806 24.0
46.374 24.0
46.6674 23.0
46.9608 25.0
47.2542 29.0
47.5475 35.0
47.8409 18.0
48.1343 19.0
48.4277 23.0
48.7211 21.0
49.0145 14.0
49.3079 24.0
49.6013 28.0
49.8947 23.0
50.1881 12.0
50.4815 13.0
50.7749 13.0
51.0683 19.0
51.3617 17.0
51.6551 23.0
51.9485 20.0
52.2418 21.0
52.5352 14.0
52.8286 14.0
53.122 16.0
53.4154 16.0
53.7088 15.0
54.0022 16.0
54.2956 15.0
54.589 12.0
54.8824 15.0
55.1758 21.0
55.4692 18.0
55.7626 17.0
56.056 20.0
56.3494 16.0
56.6428 8.0
56.9361 17.0
57.2295 13.0
57.5229 16.0
57.8163 13.0
58.1097 19.0
58.4031 13.0
58.6965 11.0
58.9899 20.0
59.2833 22.0
59.5767 18.0
59.8701 14.0
60.1635 13.0
60.4569 11.0
60.7503 15.0
61.0437 9.0
61.3371 14.0
61.6305 10.0
61.9238 12.0
62.2172 25.0
62.5106 12.0
62.804 12.0
63.0974 8.0
63.3908 12.0
63.6842 8.0
63.9776 10.0
64.271 13.0
64.5644 12.0
64.8578 12.0
65.1512 6.0
65.4446 9.0
65.738 8.0
66.0314 14.0
66.3248 8.0
66.6181 19.0
66.9115 11.0
67.2049 14.0
67.4983 14.0
67.7917 10.0
68.0851 8.0
68.3785 9.0
68.6719 13.0
68.9653 5.0
69.2587 15.0
69.5521 8.0
69.8455 8.0
70.1389 9.0
70.4323 10.0
70.7257 8.0
71.0191 15.0
71.3125 3.0
71.6058 8.0
71.8992 15.0
72.1926 10.0
72.486 9.0
72.7794 10.0
73.0728 7.0
73.3662 14.0
73.6596 16.0
73.953 8.0
74.2464 2.0
74.5398 13.0
74.8332 9.0
75.1266 8.0
75.42 7.0
75.7134 7.0
76.0068 13.0
76.3001 10.0
76.5935 7.0
76.8869 8.0
77.1803 11.0
77.4737 7.0
77.7671 11.0
78.0605 8.0
78.3539 9.0
78.6473 12.0
78.9407 7.0
79.2341 11.0
79.5275 5.0
79.8209 8.0
80.1143 8.0
80.4077 15.0
80.7011 9.0
80.9944 10.0
81.2878 10.0
81.5812 5.0
81.8746 8.0
82.168 7.0
82.4614 10.0
82.7548 10.0
83.0482 11.0
83.3416 11.0
83.635 10.0
83.9284 12.0
84.2218 16.0
84.5152 10.0
84.8086 9.0
85.102 9.0
85.3954 8.0
85.6888 4.0
85.9821 8.0
86.2755 8.0
86.5689 4.0
86.8623 8.0
87.1557 9.0
87.4491 16.0
87.7425 9.0
88.0359 2.0
88.3293 8.0
88.6227 20.0
88.9161 6.0
89.2095 8.0
89.5029 6.0
89.7963 12.0
89.9919 10.0