File: XRD/2025_06_12_aNIF_DSC_3_60_22m_pXRD.xy
3.00043 137375.0
3.19603 109003.0
3.39163 84465.0
3.58722 64015.0
3.78282 47723.0
3.97841 35153.0
4.17401 24947.0
4.3696 17658.0
4.5652 12153.0
4.7608 8684.0
4.95639 7196.0
5.15199 7104.0
5.34758 6809.0
5.54318 5724.0
5.73878 4456.0
5.93437 4108.0
6.12997 3859.0
6.32556 3673.0
6.52116 3478.0
6.71676 3324.0
6.91235 3227.0
7.10795 3331.0
7.30354 3671.0
7.49914 3983.0
7.69474 3225.0
7.89033 3319.0
8.08593 3348.0
8.28152 3432.0
8.47712 3700.0
8.67271 3957.0
8.86831 4173.0
9.06391 4664.0
9.2595 4775.0
9.4551 4771.0
9.65069 5218.0
9.84629 5508.0
10.0419 5940.0
10.2375 6530.0
10.4331 7296.0
10.6287 9186.0
10.8243 9882.0
11.0199 8848.0
11.2155 8900.0
11.4111 9158.0
11.6067 9089.0
11.8022 9300.0
11.9978 9315.0
12.1934 9775.0
12.389 9578.0
12.5846 9078.0
12.7802 9074.0
12.9758 8368.0
13.1714 7669.0
13.367 7340.0
13.5626 7144.0
13.7582 6705.0
13.9538 6502.0
14.1494 6206.0
14.345 6018.0
14.5406 5741.0
14.7362 5808.0
14.9318 5648.0
15.1274 5223.0
15.323 5095.0
15.5186 5093.0
15.7142 4977.0
15.9098 4657.0
16.1054 4684.0
16.301 4597.0
16.4966 4843.0
16.6921 5408.0
16.8877 7105.0
17.0833 5536.0
17.2789 5035.0
17.4745 5003.0
17.6701 5303.0
17.8657 5248.0
18.0613 5389.0
18.2569 6031.0
18.4525 6164.0
18.6481 5911.0
18.8437 5887.0
19.0393 6480.0
19.2349 6624.0
19.4305 7220.0
19.6261 7967.0
19.8217 8088.0
20.0173 9284.0
20.2129 8065.0
20.4085 7797.0
20.6041 8179.0
20.7997 8155.0
20.9953 8614.0
21.1909 8721.0
21.3864 9127.0
21.582 9384.0
21.7776 9528.0
21.9732 9270.0
22.1688 9031.0
22.3644 9681.0
22.56 9340.0
22.7556 8966.0
22.9512 8640.0
23.1468 8695.0
23.3424 8397.0
23.538 8302.0
23.7336 8412.0
23.9292 9652.0
24.1248 14571.0
24.3204 12583.0
24.516 7727.0
24.7116 7432.0
24.9072 7152.0
25.1028 6976.0
25.2984 7037.0
25.494 7043.0
25.6896 6957.0
25.8852 6515.0
26.0808 6353.0
26.2763 6914.0
26.4719 6124.0
26.6675 5618.0
26.8631 5377.0
27.0587 5133.0
27.2543 5102.0
27.4499 4854.0
27.6455 4900.0
27.8411 4749.0
28.0367 4690.0
28.2323 4761.0
28.4279 4409.0
28.6235 4448.0
28.8191 4319.0
29.0147 4163.0
29.2103 4224.0
29.4059 4046.0
29.6015 3972.0
29.7971 3974.0
29.9927 3882.0
30.1883 3777.0
30.3839 3604.0
30.5795 3679.0
30.7751 3546.0
30.9706 3506.0
31.1662 3452.0
31.3618 3379.0
31.5574 3377.0
31.753 3366.0
31.9486 3331.0
32.1442 3231.0
32.3398 3218.0
32.5354 3081.0
32.731 3170.0
32.9266 3132.0
33.1222 2984.0
33.3178 3049.0
33.5134 3012.0
33.709 2981.0
33.9046 2954.0
34.1002 2963.0
34.2958 2991.0
34.4914 2988.0
34.687 2844.0
34.8826 2867.0
35.0782 2916.0
35.2738 2795.0
35.4694 2883.0
35.665 2815.0
35.8605 2769.0
36.0561 2615.0
36.2517 2644.0
36.4473 2801.0
36.6429 2741.0
36.8385 2759.0
37.0341 2810.0
37.2297 2661.0
37.4253 2681.0
37.6209 2676.0
37.8165 2592.0
38.0121 2637.0
38.2077 2662.0
38.4033 2554.0
38.5989 2601.0
38.7945 2584.0
38.9901 2692.0
39.1857 2509.0
39.3813 2567.0
39.5769 2472.0
39.7725 2562.0
39.9681 2475.0
40.1637 2581.0
40.3593 2544.0
40.5548 2499.0
40.7504 2513.0
40.946 2463.0
41.1416 2482.0
41.3372 2464.0
41.5328 2385.0
41.7284 2485.0
41.924 2476.0
42.1196 2537.0
42.3152 2389.0
42.5108 2405.0
42.7064 2426.0
42.902 2393.0
43.0976 2377.0
43.2932 2334.0
43.4888 2401.0
43.6844 2193.0
43.88 2336.0
44.0756 2325.0
44.2712 2162.0
44.4668 2308.0
44.6624 2148.0
44.858 2155.0
45.0536 2324.0
45.2492 2213.0
45.4447 2169.0
45.6403 2129.0
45.8359 2118.0
46.0315 2067.0
46.2271 2181.0
46.4227 2150.0
46.6183 2038.0
46.8139 2066.0
47.0095 2185.0
47.2051 2127.0
47.4007 2064.0
47.5963 2107.0
47.7919 1924.0
47.9875 1991.0
48.1831 1879.0
48.3787 1913.0
48.5743 1862.0
48.7699 1861.0
48.9655 1899.0
49.1611 1824.0
49.3567 1731.0
49.5523 1805.0
49.7479 1730.0
49.9435 1733.0
50.139 1677.0
50.3346 1658.0
50.5302 1768.0
50.7258 1723.0
50.9214 1677.0
51.117 1641.0
51.3126 1647.0
51.5082 1637.0
51.7038 1654.0
51.8994 1644.0
52.095 1538.0
52.2906 1472.0
52.4862 1456.0
52.6818 1539.0
52.8774 1533.0
53.073 1514.0
53.2686 1402.0
53.4642 1498.0
53.6598 1409.0
53.8554 1402.0
54.051 1355.0
54.2466 1363.0
54.4422 1394.0
54.6378 1333.0
54.8334 1350.0
55.0289 1336.0
55.2245 1361.0
55.4201 1338.0
55.6157 1286.0
55.8113 1332.0
56.0069 1350.0
56.2025 1348.0
56.3981 1247.0
56.5937 1209.0
56.7893 1193.0
56.9849 1252.0
57.1805 1213.0
57.3761 1195.0
57.5717 1206.0
57.7673 1181.0
57.9629 1147.0
58.1585 1163.0
58.3541 1217.0
58.5497 1180.0
58.7453 1112.0
58.9409 1170.0
59.1365 1147.0
59.3321 1082.0
59.5277 1138.0
59.7233 1119.0
59.9188 1160.0
59.9949 1098.0