File: XRD/2025_06_07_Nifedipine_3_60_8min_pXRD.xy
3.00043 43035.0
3.19603 34040.0
3.39163 26269.0
3.58722 20251.0
3.78282 15102.0
3.97841 10931.0
4.17401 7781.0
4.3696 5459.0
4.5652 3593.0
4.7608 2574.0
4.95639 2216.0
5.15199 2055.0
5.34758 2002.0
5.54318 1571.0
5.73878 1175.0
5.93437 1061.0
6.12997 1030.0
6.32556 928.0
6.52116 832.0
6.71676 735.0
6.91235 717.0
7.10795 676.0
7.30354 739.0
7.49914 1102.0
7.69474 2095.0
7.89033 4514.0
8.08593 4610.0
8.28152 776.0
8.47712 619.0
8.67271 626.0
8.86831 620.0
9.06391 594.0
9.2595 590.0
9.4551 623.0
9.65069 632.0
9.84629 720.0
10.0419 1201.0
10.2375 3425.0
10.4331 4801.0
10.6287 802.0
10.8243 647.0
11.0199 727.0
11.2155 1094.0
11.4111 3023.0
11.6067 13462.0
11.8022 7551.0
11.9978 1512.0
12.1934 1125.0
12.389 705.0
12.5846 842.0
12.7802 1359.0
12.9758 1537.0
13.1714 822.0
13.367 904.0
13.5626 575.0
13.7582 604.0
13.9538 593.0
14.1494 651.0
14.345 997.0
14.5406 2765.0
14.7362 1904.0
14.9318 670.0
15.1274 599.0
15.323 582.0
15.5186 726.0
15.7142 1323.0
15.9098 6279.0
16.1054 11536.0
16.301 1088.0
16.4966 813.0
16.6921 822.0
16.8877 2052.0
17.0833 2327.0
17.2789 853.0
17.4745 661.0
17.6701 762.0
17.8657 927.0
18.0613 3416.0
18.2569 13840.0
18.4525 1161.0
18.6481 1248.0
18.8437 4059.0
19.0393 2593.0
19.2349 2436.0
19.4305 10362.0
19.6261 12261.0
19.8217 9366.0
20.0173 2206.0
20.2129 940.0
20.4085 1098.0
20.6041 1537.0
20.7997 1206.0
20.9953 1761.0
21.1909 1444.0
21.3864 1540.0
21.582 1467.0
21.7776 3322.0
21.9732 1826.0
22.1688 2874.0
22.3644 2911.0
22.56 4665.0
22.7556 1552.0
22.9512 981.0
23.1468 802.0
23.3424 953.0
23.538 1490.0
23.7336 1143.0
23.9292 2245.0
24.1248 6063.0
24.3204 7312.0
24.516 15927.0
24.7116 4484.0
24.9072 2565.0
25.1028 1462.0
25.2984 1089.0
25.494 2088.0
25.6896 9207.0
25.8852 3865.0
26.0808 2199.0
26.2763 3411.0
26.4719 2902.0
26.6675 2364.0
26.8631 5908.0
27.0587 2648.0
27.2543 908.0
27.4499 874.0
27.6455 1693.0
27.8411 2755.0
28.0367 1863.0
28.2323 1090.0
28.4279 969.0
28.6235 787.0
28.8191 834.0
29.0147 1263.0
29.2103 879.0
29.4059 1152.0
29.6015 1353.0
29.7971 1099.0
29.9927 892.0
30.1883 1103.0
30.3839 1233.0
30.5795 1598.0
30.7751 1172.0
30.9706 1656.0
31.1662 1352.0
31.3618 1472.0
31.5574 1376.0
31.753 1672.0
31.9486 907.0
32.1442 861.0
32.3398 1184.0
32.5354 1763.0
32.731 1855.0
32.9266 1098.0
33.1222 1171.0
33.3178 860.0
33.5134 625.0
33.709 613.0
33.9046 648.0
34.1002 611.0
34.2958 856.0
34.4914 915.0
34.687 893.0
34.8826 657.0
35.0782 1065.0
35.2738 1400.0
35.4694 1521.0
35.665 3349.0
35.8605 1939.0
36.0561 1199.0
36.2517 959.0
36.4473 705.0
36.6429 791.0
36.8385 766.0
37.0341 1138.0
37.2297 938.0
37.4253 709.0
37.6209 947.0
37.8165 1138.0
38.0121 723.0
38.2077 616.0
38.4033 866.0
38.5989 1133.0
38.7945 786.0
38.9901 768.0
39.1857 993.0
39.3813 1016.0
39.5769 646.0
39.7725 810.0
39.9681 1069.0
40.1637 2031.0
40.3593 734.0
40.5548 820.0
40.7504 890.0
40.946 656.0
41.1416 597.0
41.3372 527.0
41.5328 577.0
41.7284 839.0
41.924 1917.0
42.1196 1463.0
42.3152 1049.0
42.5108 798.0
42.7064 820.0
42.902 927.0
43.0976 813.0
43.2932 811.0
43.4888 754.0
43.6844 605.0
43.88 695.0
44.0756 992.0
44.2712 1037.0
44.4668 1040.0
44.6624 1018.0
44.858 811.0
45.0536 777.0
45.2492 614.0
45.4447 622.0
45.6403 523.0
45.8359 613.0
46.0315 565.0
46.2271 731.0
46.4227 591.0
46.6183 611.0
46.8139 881.0
47.0095 893.0
47.2051 762.0
47.4007 721.0
47.5963 676.0
47.7919 651.0
47.9875 544.0
48.1831 894.0
48.3787 1109.0
48.5743 586.0
48.7699 568.0
48.9655 1022.0
49.1611 974.0
49.3567 600.0
49.5523 546.0
49.7479 569.0
49.9435 696.0
50.139 658.0
50.3346 581.0
50.5302 622.0
50.7258 670.0
50.9214 504.0
51.117 523.0
51.3126 535.0
51.5082 486.0
51.7038 454.0
51.8994 493.0
52.095 469.0
52.2906 435.0
52.4862 499.0
52.6818 553.0
52.8774 747.0
53.073 766.0
53.2686 554.0
53.4642 485.0
53.6598 628.0
53.8554 581.0
54.051 587.0
54.2466 516.0
54.4422 548.0
54.6378 412.0
54.8334 432.0
55.0289 457.0
55.2245 489.0
55.4201 486.0
55.6157 552.0
55.8113 475.0
56.0069 534.0
56.2025 563.0
56.3981 464.0
56.5937 431.0
56.7893 439.0
56.9849 655.0
57.1805 538.0
57.3761 492.0
57.5717 483.0
57.7673 428.0
57.9629 404.0
58.1585 399.0
58.3541 376.0
58.5497 294.0
58.7453 344.0
58.9409 340.0
59.1365 375.0
59.3321 374.0
59.5277 386.0
59.7233 346.0
59.9188 328.0
59.9949 361.0