File: XRD/2025_06_03_CBD_Sorbic_Acid_MC15.xy
10.0054 6618.0
10.2445 16729.0
10.4836 2770.0
10.7226 2565.0
10.9617 3117.0
11.2007 7115.0
11.4398 18018.0
11.6789 9921.0
11.9179 4006.0
12.157 3063.0
12.3961 7182.0
12.6351 7439.0
12.8742 15938.0
13.1132 16205.0
13.3523 3938.0
13.5914 5124.0
13.8304 11265.0
14.0695 2616.0
14.3085 2334.0
14.5476 2582.0
14.7867 3568.0
15.0257 12162.0
15.2648 4764.0
15.5039 2923.0
15.7429 2580.0
15.982 3736.0
16.221 3282.0
16.4601 3565.0
16.6992 4636.0
16.9382 4572.0
17.1773 7114.0
17.4163 22358.0
17.6554 3480.0
17.8945 5027.0
18.1335 4700.0
18.3726 4081.0
18.6117 10614.0
18.8507 19948.0
19.0898 8765.0
19.3288 5246.0
19.5679 8487.0
19.807 4454.0
20.046 3401.0
20.2851 4552.0
20.5241 14913.0
20.7632 6160.0
21.0023 6365.0
21.2413 3549.0
21.4804 7379.0
21.7195 16243.0
21.9585 13077.0
22.1976 23898.0
22.4366 8509.0
22.6757 41074.0
22.9148 26763.0
23.1538 6975.0
23.3929 11486.0
23.6319 8722.0
23.871 7677.0
24.1101 3732.0
24.3491 7420.0
24.5882 13990.0
24.8273 17676.0
25.0663 4544.0
25.3054 6785.0
25.5444 4351.0
25.7835 3211.0
26.0226 3225.0
26.2616 3998.0
26.5007 5895.0
26.7398 4423.0
26.9788 4006.0
27.2179 5351.0
27.4569 8540.0
27.696 25066.0
27.9351 4798.0
28.1741 3446.0
28.4132 3772.0
28.6522 4163.0
28.8913 4546.0
29.1304 6701.0
29.3694 3369.0
29.6085 3060.0
29.8476 2242.0
30.0866 2309.0
30.3257 2729.0
30.5647 2847.0
30.8038 2630.0
31.0429 3318.0
31.2819 3527.0
31.521 3240.0
31.76 2615.0
31.9991 3392.0
32.2382 3764.0
32.4772 3969.0
32.7163 2916.0
32.9554 2638.0
33.1944 2841.0
33.4335 2684.0
33.6725 2423.0
33.9116 3404.0
34.1507 2783.0
34.3897 2618.0
34.6288 3092.0
34.8678 2887.0
35.1069 2878.0
35.346 2756.0
35.585 2941.0
35.8241 3338.0
36.0632 2777.0
36.3022 2215.0
36.5413 2876.0
36.7803 2617.0
37.0194 2935.0
37.2585 2091.0
37.4975 2090.0
37.7366 2303.0
37.9756 2223.0
38.2147 2170.0
38.4538 1928.0
38.6928 1989.0
38.9319 2531.0
39.171 2849.0
39.41 2792.0
39.6491 2369.0
39.8881 3822.0
40.1272 2773.0
40.3663 2386.0
40.6053 2558.0
40.8444 2835.0
41.0835 2318.0
41.3225 2186.0
41.5616 1844.0
41.8006 2147.0
42.0397 1797.0
42.2788 1838.0
42.5178 2490.0
42.7569 2335.0
42.9959 2074.0
43.235 2377.0
43.4741 1900.0
43.7131 1743.0
43.9522 1547.0
44.1913 1669.0
44.4303 1701.0
44.6694 1667.0
44.9084 1867.0
45.1475 2250.0
45.3866 1960.0
45.6256 2124.0
45.8647 2197.0
46.1037 2725.0
46.3428 1939.0
46.5819 1886.0
46.8209 2168.0
47.06 1635.0
47.2991 1670.0
47.5381 1901.0
47.7772 1852.0
48.0162 1842.0
48.2553 1834.0
48.4944 1601.0
48.7334 1503.0
48.9725 1645.0
49.2115 1691.0
49.4506 1647.0
49.6897 1409.0
49.9287 1524.0
50.1678 1586.0
50.4069 1506.0
50.6459 1451.0
50.885 1546.0
51.124 1453.0
51.3631 1480.0
51.6022 1627.0
51.8412 1574.0
52.0803 1518.0
52.3194 1366.0
52.5584 1340.0
52.7975 1419.0
53.0365 1443.0
53.2756 1332.0
53.5147 1367.0
53.7537 1685.0
53.9928 1495.0
54.2318 1324.0
54.4709 1234.0
54.71 1212.0
54.949 1289.0
55.1881 1220.0
55.4272 1251.0
55.6662 1278.0
55.9053 1334.0
56.1443 1270.0
56.3834 1228.0
56.6225 1222.0
56.8615 1226.0
57.1006 1265.0
57.3396 1216.0
57.5787 1068.0
57.8178 1053.0
58.0568 1080.0
58.2959 1063.0
58.535 1048.0
58.774 1209.0
59.0131 1088.0
59.2521 1003.0
59.4912 1131.0
59.7303 1042.0
59.9693 994.0
60.2084 1032.0
60.4474 1046.0
60.6865 1075.0
60.9256 984.0
61.1646 1009.0
61.4037 944.0
61.6428 1013.0
61.8818 901.0
62.1209 902.0
62.3599 924.0
62.599 1006.0
62.8381 952.0
63.0771 936.0
63.3162 902.0
63.5552 974.0
63.7943 913.0
64.0334 845.0
64.2724 840.0
64.5115 839.0
64.7506 829.0
64.9896 838.0
65.2287 798.0
65.4677 860.0
65.7068 856.0
65.9459 881.0
66.1849 815.0
66.424 788.0
66.6631 805.0
66.9021 840.0
67.1412 788.0
67.3802 816.0
67.6193 756.0
67.8584 767.0
68.0974 802.0
68.3365 835.0
68.5755 800.0
68.8146 836.0
69.0537 771.0
69.2927 772.0
69.5318 769.0
69.7709 746.0
70.0099 769.0
70.249 740.0
70.488 722.0
70.7271 784.0
70.9662 744.0
71.2052 817.0
71.4443 821.0
71.6833 783.0
71.9224 704.0
72.1615 727.0
72.4005 813.0
72.6396 738.0
72.8787 774.0
73.1177 764.0
73.3568 770.0
73.5958 723.0
73.8349 748.0
74.074 754.0
74.313 721.0
74.5521 746.0
74.7911 759.0
75.0302 755.0
75.2693 728.0
75.5083 746.0
75.7474 756.0
75.9865 765.0
76.2255 741.0
76.4646 715.0
76.7036 767.0
76.9427 739.0
77.1818 747.0
77.4208 750.0
77.6599 709.0
77.899 734.0
78.138 741.0
78.3771 776.0
78.6161 760.0
78.8552 758.0
79.0943 727.0
79.3333 735.0
79.5724 726.0
79.8114 757.0
79.9962 751.0