File: XRD/2025_06_07_CeO2_5_90_2min_pXRD.xy
5.00543 93.0
5.29883 116.0
5.59222 80.0
5.88561 55.0
6.17901 46.0
6.4724 29.0
6.7658 48.0
7.05919 19.0
7.35258 21.0
7.64598 19.0
7.93937 21.0
8.23277 18.0
8.52616 12.0
8.81955 14.0
9.11295 9.0
9.40634 19.0
9.69974 18.0
9.99313 13.0
10.2865 14.0
10.5799 10.0
10.8733 13.0
11.1667 20.0
11.4601 17.0
11.7535 15.0
12.0469 19.0
12.3403 16.0
12.6337 13.0
12.9271 18.0
13.2205 16.0
13.5139 16.0
13.8072 13.0
14.1006 17.0
14.394 16.0
14.6874 18.0
14.9808 15.0
15.2742 21.0
15.5676 14.0
15.861 25.0
16.1544 12.0
16.4478 16.0
16.7412 16.0
17.0346 17.0
17.328 17.0
17.6214 9.0
17.9148 12.0
18.2082 12.0
18.5016 14.0
18.7949 19.0
19.0883 13.0
19.3817 19.0
19.6751 6.0
19.9685 10.0
20.2619 16.0
20.5553 12.0
20.8487 22.0
21.1421 13.0
21.4355 8.0
21.7289 8.0
22.0223 9.0
22.3157 6.0
22.6091 8.0
22.9025 9.0
23.1959 20.0
23.4892 18.0
23.7826 15.0
24.076 13.0
24.3694 12.0
24.6628 8.0
24.9562 11.0
25.2496 14.0
25.543 9.0
25.8364 6.0
26.1298 16.0
26.4232 15.0
26.7166 11.0
27.01 13.0
27.3034 11.0
27.5968 21.0
27.8902 25.0
28.1835 31.0
28.4769 357.0
28.7703 90.0
29.0637 26.0
29.3571 17.0
29.6505 23.0
29.9439 13.0
30.2373 11.0
30.5307 12.0
30.8241 7.0
31.1175 10.0
31.4109 13.0
31.7043 16.0
31.9977 6.0
32.2911 11.0
32.5845 11.0
32.8779 22.0
33.1712 191.0
33.4646 11.0
33.758 10.0
34.0514 11.0
34.3448 7.0
34.6382 9.0
34.9316 12.0
35.225 8.0
35.5184 7.0
35.8118 6.0
36.1052 9.0
36.3986 9.0
36.692 8.0
36.9854 9.0
37.2788 8.0
37.5722 11.0
37.8655 12.0
38.1589 7.0
38.4523 11.0
38.7457 7.0
39.0391 11.0
39.3325 6.0
39.6259 15.0
39.9193 11.0
40.2127 4.0
40.5061 10.0
40.7995 12.0
41.0929 10.0
41.3863 11.0
41.6797 11.0
41.9731 16.0
42.2665 10.0
42.5598 10.0
42.8532 7.0
43.1466 2.0
43.44 9.0
43.7334 10.0
44.0268 10.0
44.3202 10.0
44.6136 8.0
44.907 9.0
45.2004 6.0
45.4938 10.0
45.7872 9.0
46.0806 8.0
46.374 7.0
46.6674 6.0
46.9608 11.0
47.2542 19.0
47.5475 426.0
47.8409 35.0
48.1343 11.0
48.4277 11.0
48.7211 6.0
49.0145 9.0
49.3079 12.0
49.6013 9.0
49.8947 9.0
50.1881 9.0
50.4815 9.0
50.7749 9.0
51.0683 10.0
51.3617 7.0
51.6551 7.0
51.9485 6.0
52.2418 14.0
52.5352 7.0
52.8286 8.0
53.122 3.0
53.4154 11.0
53.7088 11.0
54.0022 6.0
54.2956 6.0
54.589 4.0
54.8824 12.0
55.1758 4.0
55.4692 6.0
55.7626 7.0
56.056 23.0
56.3494 301.0
56.6428 33.0
56.9361 9.0
57.2295 10.0
57.5229 9.0
57.8163 6.0
58.1097 15.0
58.4031 13.0
58.6965 8.0
58.9899 21.0
59.2833 48.0
59.5767 6.0
59.8701 8.0
60.1635 5.0
60.4569 9.0
60.7503 9.0
61.0437 6.0
61.3371 12.0
61.6305 10.0
61.9238 7.0
62.2172 15.0
62.5106 4.0
62.804 5.0
63.0974 4.0
63.3908 6.0
63.6842 8.0
63.9776 9.0
64.271 13.0
64.5644 1.0
64.8578 4.0
65.1512 5.0
65.4446 12.0
65.738 5.0
66.0314 1.0
66.3248 9.0
66.6181 4.0
66.9115 2.0
67.2049 4.0
67.4983 6.0
67.7917 9.0
68.0851 7.0
68.3785 5.0
68.6719 9.0
68.9653 7.0
69.2587 23.0
69.5521 22.0
69.8455 7.0
70.1389 4.0
70.4323 2.0
70.7257 8.0
71.0191 12.0
71.3125 1.0
71.6058 9.0
71.8992 10.0
72.1926 5.0
72.486 10.0
72.7794 10.0
73.0728 11.0
73.3662 7.0
73.6596 3.0
73.953 7.0
74.2464 10.0
74.5398 4.0
74.8332 6.0
75.1266 7.0
75.42 3.0
75.7134 8.0
76.0068 4.0
76.3001 8.0
76.5935 37.0
76.8869 49.0
77.1803 15.0
77.4737 8.0
77.7671 2.0
78.0605 9.0
78.3539 6.0
78.6473 11.0
78.9407 16.0
79.2341 34.0
79.5275 12.0
79.8209 14.0
80.1143 5.0
80.4077 9.0
80.7011 15.0
80.9944 4.0
81.2878 4.0
81.5812 5.0
81.8746 4.0
82.168 2.0
82.4614 5.0
82.7548 3.0
83.0482 0.0
83.3416 11.0
83.635 4.0
83.9284 10.0
84.2218 11.0
84.5152 5.0
84.8086 5.0
85.102 9.0
85.3954 9.0
85.6888 5.0
85.9821 4.0
86.2755 4.0
86.5689 5.0
86.8623 3.0
87.1557 3.0
87.4491 6.0
87.7425 5.0
88.0359 12.0
88.3293 32.0
88.6227 42.0
88.9161 17.0
89.2095 2.0
89.5029 6.0
89.7963 2.0
89.9919 11.0