File: XRD/2025_06_03_Sorbic_Acid_10_80_50s.xy
10.0054 2760.0
10.2445 2902.0
10.4836 2920.0
10.7226 2939.0
10.9617 5034.0
11.2007 25767.0
11.4398 106365.0
11.6789 22371.0
11.9179 4413.0
12.157 3735.0
12.3961 3775.0
12.6351 5363.0
12.8742 18142.0
13.1132 35711.0
13.3523 3986.0
13.5914 3143.0
13.8304 3031.0
14.0695 3078.0
14.3085 2932.0
14.5476 2733.0
14.7867 2610.0
15.0257 2655.0
15.2648 2585.0
15.5039 2554.0
15.7429 2736.0
15.982 4271.0
16.221 6346.0
16.4601 2479.0
16.6992 2384.0
16.9382 2361.0
17.1773 2286.0
17.4163 2280.0
17.6554 2375.0
17.8945 2467.0
18.1335 4344.0
18.3726 4139.0
18.6117 2427.0
18.8507 2461.0
19.0898 2550.0
19.3288 4162.0
19.5679 3664.0
19.807 2568.0
20.046 2502.0
20.2851 2572.0
20.5241 2978.0
20.7632 3041.0
21.0023 2832.0
21.2413 2955.0
21.4804 2966.0
21.7195 3197.0
21.9585 3796.0
22.1976 5919.0
22.4366 13036.0
22.6757 71647.0
22.9148 159214.0
23.1538 68536.0
23.3929 18984.0
23.6319 10054.0
23.871 6963.0
24.1101 5425.0
24.3491 5944.0
24.5882 27280.0
24.8273 61966.0
25.0663 9577.0
25.3054 4689.0
25.5444 4368.0
25.7835 4198.0
26.0226 4654.0
26.2616 4119.0
26.5007 6488.0
26.7398 5431.0
26.9788 4065.0
27.2179 5206.0
27.4569 9361.0
27.696 33439.0
27.9351 45108.0
28.1741 5132.0
28.4132 3574.0
28.6522 3372.0
28.8913 3185.0
29.1304 3018.0
29.3694 3081.0
29.6085 3520.0
29.8476 3072.0
30.0866 2759.0
30.3257 2726.0
30.5647 2656.0
30.8038 2575.0
31.0429 2413.0
31.2819 2806.0
31.521 5152.0
31.76 5736.0
31.9991 4846.0
32.2382 7684.0
32.4772 9066.0
32.7163 7591.0
32.9554 3468.0
33.1944 3367.0
33.4335 3828.0
33.6725 2697.0
33.9116 2999.0
34.1507 3278.0
34.3897 2268.0
34.6288 2256.0
34.8678 2197.0
35.1069 2261.0
35.346 2380.0
35.585 3654.0
35.8241 7387.0
36.0632 5812.0
36.3022 2981.0
36.5413 2541.0
36.7803 3115.0
37.0194 2985.0
37.2585 2201.0
37.4975 2187.0
37.7366 2180.0
37.9756 2121.0
38.2147 2234.0
38.4538 2049.0
38.6928 2202.0
38.9319 2690.0
39.171 3632.0
39.41 5932.0
39.6491 3193.0
39.8881 8033.0
40.1272 6599.0
40.3663 2841.0
40.6053 2502.0
40.8444 5370.0
41.0835 3534.0
41.3225 3721.0
41.5616 2999.0
41.8006 2033.0
42.0397 2065.0
42.2788 2025.0
42.5178 2060.0
42.7569 3530.0
42.9959 4169.0
43.235 2560.0
43.4741 1893.0
43.7131 1953.0
43.9522 1850.0
44.1913 1841.0
44.4303 1875.0
44.6694 1994.0
44.9084 2121.0
45.1475 2827.0
45.3866 2736.0
45.6256 3403.0
45.8647 5701.0
46.1037 6169.0
46.3428 3232.0
46.5819 2407.0
46.8209 3570.0
47.06 3277.0
47.2991 2140.0
47.5381 3588.0
47.7772 3240.0
48.0162 2519.0
48.2553 2291.0
48.4944 1992.0
48.7334 1824.0
48.9725 1892.0
49.2115 1883.0
49.4506 1886.0
49.6897 1877.0
49.9287 1959.0
50.1678 1794.0
50.4069 1688.0
50.6459 1778.0
50.885 1941.0
51.124 1938.0
51.3631 2284.0
51.6022 2015.0
51.8412 2257.0
52.0803 1626.0
52.3194 1611.0
52.5584 1546.0
52.7975 1689.0
53.0365 1845.0
53.2756 1741.0
53.5147 1869.0
53.7537 2624.0
53.9928 2934.0
54.2318 1933.0
54.4709 1584.0
54.71 1658.0
54.949 1534.0
55.1881 1555.0
55.4272 1522.0
55.6662 1465.0
55.9053 1788.0
56.1443 1739.0
56.3834 1637.0
56.6225 1653.0
56.8615 1749.0
57.1006 1934.0
57.3396 2034.0
57.5787 1747.0
57.8178 1486.0
58.0568 1584.0
58.2959 1511.0
58.535 1579.0
58.774 1497.0
59.0131 1445.0
59.2521 1401.0
59.4912 2121.0
59.7303 2157.0
59.9693 1446.0
60.2084 1369.0
60.4474 1538.0
60.6865 1898.0
60.9256 1827.0
61.1646 1580.0
61.4037 1450.0
61.6428 1366.0
61.8818 1202.0
62.1209 1152.0
62.3599 1284.0
62.599 1362.0
62.8381 1340.0
63.0771 1356.0
63.3162 1283.0
63.5552 1310.0
63.7943 1227.0
64.0334 1185.0
64.2724 1110.0
64.5115 1223.0
64.7506 1161.0
64.9896 1168.0
65.2287 1161.0
65.4677 1220.0
65.7068 1299.0
65.9459 1238.0
66.1849 1188.0
66.424 1106.0
66.6631 1138.0
66.9021 1188.0
67.1412 1167.0
67.3802 1147.0
67.6193 1145.0
67.8584 994.0
68.0974 1053.0
68.3365 1126.0
68.5755 1062.0
68.8146 1026.0
69.0537 1117.0
69.2927 1094.0
69.5318 1032.0
69.7709 1052.0
70.0099 1002.0
70.249 975.0
70.488 1028.0
70.7271 1037.0
70.9662 976.0
71.2052 1036.0
71.4443 1168.0
71.6833 1018.0
71.9224 993.0
72.1615 1003.0
72.4005 953.0
72.6396 929.0
72.8787 961.0
73.1177 998.0
73.3568 1046.0
73.5958 1040.0
73.8349 974.0
74.074 995.0
74.313 897.0
74.5521 967.0
74.7911 1041.0
75.0302 907.0
75.2693 955.0
75.5083 964.0
75.7474 996.0
75.9865 957.0
76.2255 932.0
76.4646 942.0
76.7036 979.0
76.9427 990.0
77.1818 1016.0
77.4208 988.0
77.6599 960.0
77.899 920.0
78.138 1173.0
78.3771 1062.0
78.6161 1244.0
78.8552 1204.0
79.0943 1047.0
79.3333 1018.0
79.5724 916.0
79.8114 953.0
79.9962 1052.0