File: XRD/2025_06_03_Ag_Behenate_3_60_8min.xy
3.00043 44111.0
3.19603 34687.0
3.39163 26697.0
3.58722 20372.0
3.78282 15024.0
3.97841 11077.0
4.17401 8758.0
4.3696 7828.0
4.5652 8312.0
4.7608 2929.0
4.95639 2378.0
5.15199 2242.0
5.34758 2198.0
5.54318 1934.0
5.73878 2249.0
5.93437 5289.0
6.12997 2907.0
6.32556 1186.0
6.52116 945.0
6.71676 844.0
6.91235 856.0
7.10795 1178.0
7.30354 2146.0
7.49914 7950.0
7.69474 1633.0
7.89033 689.0
8.08593 597.0
8.28152 575.0
8.47712 573.0
8.67271 810.0
8.86831 1484.0
9.06391 4643.0
9.2595 766.0
9.4551 526.0
9.65069 499.0
9.84629 499.0
10.0419 573.0
10.2375 806.0
10.4331 1996.0
10.6287 3083.0
10.8243 557.0
11.0199 487.0
11.2155 438.0
11.4111 433.0
11.6067 489.0
11.8022 623.0
11.9978 1307.0
12.1934 922.0
12.389 478.0
12.5846 475.0
12.7802 439.0
12.9758 412.0
13.1714 488.0
13.367 645.0
13.5626 1700.0
13.7582 552.0
13.9538 432.0
14.1494 398.0
14.345 377.0
14.5406 364.0
14.7362 409.0
14.9318 522.0
15.1274 837.0
15.323 443.0
15.5186 428.0
15.7142 407.0
15.9098 365.0
16.1054 380.0
16.301 402.0
16.4966 587.0
16.6921 816.0
16.8877 391.0
17.0833 382.0
17.2789 340.0
17.4745 341.0
17.6701 359.0
17.8657 370.0
18.0613 401.0
18.2569 480.0
18.4525 361.0
18.6481 342.0
18.8437 448.0
19.0393 805.0
19.2349 2136.0
19.4305 1764.0
19.6261 886.0
19.8217 518.0
20.0173 440.0
20.2129 504.0
20.4085 426.0
20.6041 541.0
20.7997 464.0
20.9953 436.0
21.1909 467.0
21.3864 484.0
21.582 466.0
21.7776 525.0
21.9732 648.0
22.1688 640.0
22.3644 545.0
22.56 829.0
22.7556 1077.0
22.9512 1710.0
23.1468 1421.0
23.3424 612.0
23.538 861.0
23.7336 910.0
23.9292 589.0
24.1248 461.0
24.3204 485.0
24.516 604.0
24.7116 525.0
24.9072 597.0
25.1028 702.0
25.2984 856.0
25.494 1548.0
25.6896 1418.0
25.8852 918.0
26.0808 711.0
26.2763 755.0
26.4719 857.0
26.6675 1034.0
26.8631 915.0
27.0587 947.0
27.2543 1212.0
27.4499 1222.0
27.6455 1167.0
27.8411 959.0
28.0367 796.0
28.2323 719.0
28.4279 721.0
28.6235 822.0
28.8191 789.0
29.0147 672.0
29.2103 644.0
29.4059 644.0
29.6015 716.0
29.7971 618.0
29.9927 727.0
30.1883 669.0
30.3839 552.0
30.5795 669.0
30.7751 570.0
30.9706 577.0
31.1662 676.0
31.3618 624.0
31.5574 495.0
31.753 576.0
31.9486 516.0
32.1442 561.0
32.3398 639.0
32.5354 705.0
32.731 844.0
32.9266 1037.0
33.1222 838.0
33.3178 815.0
33.5134 947.0
33.709 1324.0
33.9046 843.0
34.1002 711.0
34.2958 636.0
34.4914 549.0
34.687 570.0
34.8826 601.0
35.0782 830.0
35.2738 725.0
35.4694 589.0
35.665 604.0
35.8605 526.0
36.0561 516.0
36.2517 631.0
36.4473 751.0
36.6429 638.0
36.8385 563.0
37.0341 574.0
37.2297 504.0
37.4253 498.0
37.6209 617.0
37.8165 745.0
38.0121 678.0
38.2077 524.0
38.4033 518.0
38.5989 560.0
38.7945 520.0
38.9901 589.0
39.1857 814.0
39.3813 659.0
39.5769 594.0
39.7725 573.0
39.9681 604.0
40.1637 813.0
40.3593 1055.0
40.5548 1006.0
40.7504 751.0
40.946 616.0
41.1416 527.0
41.3372 548.0
41.5328 611.0
41.7284 676.0
41.924 700.0
42.1196 627.0
42.3152 499.0
42.5108 431.0
42.7064 478.0
42.902 466.0
43.0976 571.0
43.2932 697.0
43.4888 562.0
43.6844 545.0
43.88 483.0
44.0756 496.0
44.2712 587.0
44.4668 532.0
44.6624 548.0
44.858 523.0
45.0536 518.0
45.2492 460.0
45.4447 451.0
45.6403 449.0
45.8359 460.0
46.0315 491.0
46.2271 493.0
46.4227 516.0
46.6183 513.0
46.8139 428.0
47.0095 399.0
47.2051 406.0
47.4007 425.0
47.5963 411.0
47.7919 459.0
47.9875 440.0
48.1831 454.0
48.3787 413.0
48.5743 437.0
48.7699 391.0
48.9655 482.0
49.1611 410.0
49.3567 412.0
49.5523 401.0
49.7479 453.0
49.9435 476.0
50.139 457.0
50.3346 434.0
50.5302 434.0
50.7258 438.0
50.9214 463.0
51.117 458.0
51.3126 485.0
51.5082 503.0
51.7038 467.0
51.8994 461.0
52.095 468.0
52.2906 462.0
52.4862 480.0
52.6818 454.0
52.8774 405.0
53.073 477.0
53.2686 449.0
53.4642 429.0
53.6598 468.0
53.8554 431.0
54.051 427.0
54.2466 416.0
54.4422 383.0
54.6378 406.0
54.8334 399.0
55.0289 439.0
55.2245 400.0
55.4201 397.0
55.6157 392.0
55.8113 404.0
56.0069 401.0
56.2025 331.0
56.3981 389.0
56.5937 409.0
56.7893 412.0
56.9849 440.0
57.1805 383.0
57.3761 343.0
57.5717 363.0
57.7673 371.0
57.9629 398.0
58.1585 431.0
58.3541 394.0
58.5497 365.0
58.7453 360.0
58.9409 408.0
59.1365 368.0
59.3321 311.0
59.5277 327.0
59.7233 312.0
59.9188 329.0
59.9949 351.0