File: XRD/2025_06_12_Ag_Behenate_3_60_8m_pXRD.xy
3.00043 43040.0
3.19603 34107.0
3.39163 26433.0
3.58722 19883.0
3.78282 14826.0
3.97841 11051.0
4.17401 7906.0
4.3696 5949.0
4.5652 4784.0
4.7608 2632.0
4.95639 2250.0
5.15199 2155.0
5.34758 2072.0
5.54318 1641.0
5.73878 1536.0
5.93437 2067.0
6.12997 1430.0
6.32556 885.0
6.52116 772.0
6.71676 695.0
6.91235 649.0
7.10795 717.0
7.30354 1048.0
7.49914 1860.0
7.69474 627.0
7.89033 388.0
8.08593 366.0
8.28152 352.0
8.47712 334.0
8.67271 414.0
8.86831 658.0
9.06391 955.0
9.2595 320.0
9.4551 296.0
9.65069 293.0
9.84629 294.0
10.0419 334.0
10.2375 398.0
10.4331 791.0
10.6287 678.0
10.8243 264.0
11.0199 298.0
11.2155 278.0
11.4111 282.0
11.6067 275.0
11.8022 339.0
11.9978 507.0
12.1934 388.0
12.389 276.0
12.5846 269.0
12.7802 293.0
12.9758 270.0
13.1714 298.0
13.367 335.0
13.5626 577.0
13.7582 320.0
13.9538 268.0
14.1494 276.0
14.345 244.0
14.5406 269.0
14.7362 290.0
14.9318 316.0
15.1274 350.0
15.323 259.0
15.5186 221.0
15.7142 270.0
15.9098 242.0
16.1054 248.0
16.301 267.0
16.4966 298.0
16.6921 316.0
16.8877 215.0
17.0833 239.0
17.2789 219.0
17.4745 219.0
17.6701 283.0
17.8657 206.0
18.0613 221.0
18.2569 238.0
18.4525 229.0
18.6481 234.0
18.8437 248.0
19.0393 446.0
19.2349 942.0
19.4305 929.0
19.6261 512.0
19.8217 335.0
20.0173 267.0
20.2129 302.0
20.4085 269.0
20.6041 315.0
20.7997 316.0
20.9953 283.0
21.1909 288.0
21.3864 289.0
21.582 299.0
21.7776 315.0
21.9732 381.0
22.1688 385.0
22.3644 353.0
22.56 422.0
22.7556 542.0
22.9512 784.0
23.1468 685.0
23.3424 361.0
23.538 498.0
23.7336 491.0
23.9292 339.0
24.1248 319.0
24.3204 379.0
24.516 339.0
24.7116 349.0
24.9072 346.0
25.1028 399.0
25.2984 483.0
25.494 778.0
25.6896 775.0
25.8852 478.0
26.0808 390.0
26.2763 422.0
26.4719 432.0
26.6675 541.0
26.8631 497.0
27.0587 507.0
27.2543 553.0
27.4499 585.0
27.6455 626.0
27.8411 532.0
28.0367 481.0
28.2323 470.0
28.4279 431.0
28.6235 458.0
28.8191 449.0
29.0147 406.0
29.2103 355.0
29.4059 363.0
29.6015 376.0
29.7971 366.0
29.9927 428.0
30.1883 401.0
30.3839 362.0
30.5795 352.0
30.7751 351.0
30.9706 323.0
31.1662 385.0
31.3618 389.0
31.5574 339.0
31.753 335.0
31.9486 325.0
32.1442 314.0
32.3398 351.0
32.5354 412.0
32.731 411.0
32.9266 519.0
33.1222 437.0
33.3178 456.0
33.5134 530.0
33.709 649.0
33.9046 485.0
34.1002 405.0
34.2958 302.0
34.4914 356.0
34.687 331.0
34.8826 392.0
35.0782 438.0
35.2738 404.0
35.4694 375.0
35.665 350.0
35.8605 314.0
36.0561 328.0
36.2517 378.0
36.4473 380.0
36.6429 383.0
36.8385 305.0
37.0341 334.0
37.2297 279.0
37.4253 315.0
37.6209 328.0
37.8165 393.0
38.0121 389.0
38.2077 319.0
38.4033 306.0
38.5989 342.0
38.7945 310.0
38.9901 340.0
39.1857 424.0
39.3813 355.0
39.5769 317.0
39.7725 320.0
39.9681 344.0
40.1637 398.0
40.3593 543.0
40.5548 486.0
40.7504 365.0
40.946 302.0
41.1416 318.0
41.3372 333.0
41.5328 319.0
41.7284 350.0
41.924 352.0
42.1196 314.0
42.3152 289.0
42.5108 276.0
42.7064 272.0
42.902 233.0
43.0976 333.0
43.2932 351.0
43.4888 316.0
43.6844 264.0
43.88 299.0
44.0756 278.0
44.2712 320.0
44.4668 295.0
44.6624 297.0
44.858 312.0
45.0536 283.0
45.2492 247.0
45.4447 267.0
45.6403 294.0
45.8359 290.0
46.0315 296.0
46.2271 296.0
46.4227 293.0
46.6183 290.0
46.8139 263.0
47.0095 271.0
47.2051 286.0
47.4007 257.0
47.5963 259.0
47.7919 278.0
47.9875 250.0
48.1831 250.0
48.3787 247.0
48.5743 243.0
48.7699 239.0
48.9655 233.0
49.1611 286.0
49.3567 272.0
49.5523 285.0
49.7479 250.0
49.9435 265.0
50.139 289.0
50.3346 271.0
50.5302 281.0
50.7258 257.0
50.9214 282.0
51.117 263.0
51.3126 279.0
51.5082 300.0
51.7038 309.0
51.8994 259.0
52.095 282.0
52.2906 247.0
52.4862 241.0
52.6818 257.0
52.8774 241.0
53.073 263.0
53.2686 288.0
53.4642 298.0
53.6598 262.0
53.8554 258.0
54.051 248.0
54.2466 216.0
54.4422 297.0
54.6378 210.0
54.8334 223.0
55.0289 268.0
55.2245 218.0
55.4201 235.0
55.6157 237.0
55.8113 244.0
56.0069 259.0
56.2025 224.0
56.3981 237.0
56.5937 262.0
56.7893 277.0
56.9849 231.0
57.1805 217.0
57.3761 214.0
57.5717 192.0
57.7673 212.0
57.9629 187.0
58.1585 242.0
58.3541 202.0
58.5497 211.0
58.7453 214.0
58.9409 212.0
59.1365 226.0
59.3321 218.0
59.5277 187.0
59.7233 222.0
59.9188 230.0
59.9949 200.0