File: XRD/2025_06_03_THC_Sorbic_Acid_MC15.xy
10.0054 3616.0
10.2445 3735.0
10.4836 3676.0
10.7226 3972.0
10.9617 5225.0
11.2007 16957.0
11.4398 8572.0
11.6789 4330.0
11.9179 4224.0
12.157 4418.0
12.3961 4994.0
12.6351 8632.0
12.8742 11341.0
13.1132 4848.0
13.3523 4899.0
13.5914 5017.0
13.8304 5157.0
14.0695 5072.0
14.3085 4958.0
14.5476 5179.0
14.7867 5225.0
15.0257 5347.0
15.2648 5260.0
15.5039 5536.0
15.7429 5844.0
15.982 6241.0
16.221 5810.0
16.4601 6024.0
16.6992 6021.0
16.9382 6239.0
17.1773 6352.0
17.4163 6583.0
17.6554 6831.0
17.8945 7325.0
18.1335 8756.0
18.3726 7308.0
18.6117 7564.0
18.8507 7701.0
19.0898 8695.0
19.3288 8135.0
19.5679 7843.0
19.807 7819.0
20.046 7752.0
20.2851 7613.0
20.5241 7426.0
20.7632 7262.0
21.0023 6943.0
21.2413 6639.0
21.4804 6454.0
21.7195 6355.0
21.9585 6416.0
22.1976 7140.0
22.4366 14460.0
22.6757 35732.0
22.9148 9391.0
23.1538 6798.0
23.3929 5921.0
23.6319 4925.0
23.871 4613.0
24.1101 4476.0
24.3491 4619.0
24.5882 11213.0
24.8273 4293.0
25.0663 3789.0
25.3054 3659.0
25.5444 3587.0
25.7835 3591.0
26.0226 3469.0
26.2616 3683.0
26.5007 3384.0
26.7398 3172.0
26.9788 3124.0
27.2179 3620.0
27.4569 7076.0
27.696 5146.0
27.9351 2877.0
28.1741 2816.0
28.4132 2684.0
28.6522 2567.0
28.8913 2394.0
29.1304 2485.0
29.3694 2564.0
29.6085 2366.0
29.8476 2316.0
30.0866 2230.0
30.3257 2267.0
30.5647 2170.0
30.8038 2192.0
31.0429 2219.0
31.2819 2572.0
31.521 2240.0
31.76 2661.0
31.9991 3737.0
32.2382 2504.0
32.4772 2545.0
32.7163 2188.0
32.9554 1945.0
33.1944 2172.0
33.4335 1911.0
33.6725 2456.0
33.9116 1913.0
34.1507 1944.0
34.3897 1844.0
34.6288 1840.0
34.8678 1809.0
35.1069 1912.0
35.346 2280.0
35.585 2310.0
35.8241 2679.0
36.0632 1986.0
36.3022 1986.0
36.5413 1994.0
36.7803 2609.0
37.0194 1933.0
37.2585 1938.0
37.4975 1846.0
37.7366 1866.0
37.9756 1884.0
38.2147 1988.0
38.4538 1986.0
38.6928 2191.0
38.9319 2226.0
39.171 2611.0
39.41 2539.0
39.6491 2443.0
39.8881 3564.0
40.1272 2056.0
40.3663 1926.0
40.6053 2287.0
40.8444 2056.0
41.0835 2493.0
41.3225 1943.0
41.5616 1902.0
41.8006 1884.0
42.0397 1817.0
42.2788 1864.0
42.5178 1973.0
42.7569 1859.0
42.9959 1997.0
43.235 1815.0
43.4741 1755.0
43.7131 1704.0
43.9522 1752.0
44.1913 1725.0
44.4303 1753.0
44.6694 1687.0
44.9084 1748.0
45.1475 1799.0
45.3866 1875.0
45.6256 2039.0
45.8647 2287.0
46.1037 1803.0
46.3428 1601.0
46.5819 1586.0
46.8209 1779.0
47.06 1562.0
47.2991 1908.0
47.5381 1583.0
47.7772 1542.0
48.0162 1611.0
48.2553 1548.0
48.4944 1395.0
48.7334 1434.0
48.9725 1429.0
49.2115 1367.0
49.4506 1294.0
49.6897 1321.0
49.9287 1247.0
50.1678 1325.0
50.4069 1239.0
50.6459 1373.0
50.885 1287.0
51.124 1340.0
51.3631 1308.0
51.6022 1268.0
51.8412 1203.0
52.0803 1168.0
52.3194 1145.0
52.5584 1112.0
52.7975 1208.0
53.0365 1190.0
53.2756 1222.0
53.5147 1316.0
53.7537 1267.0
53.9928 1098.0
54.2318 1096.0
54.4709 1096.0
54.71 1080.0
54.949 1045.0
55.1881 1069.0
55.4272 1059.0
55.6662 1063.0
55.9053 1131.0
56.1443 1085.0
56.3834 1127.0
56.6225 1116.0
56.8615 1106.0
57.1006 1017.0
57.3396 920.0
57.5787 969.0
57.8178 976.0
58.0568 978.0
58.2959 905.0
58.535 908.0
58.774 898.0
59.0131 921.0
59.2521 941.0
59.4912 1010.0
59.7303 903.0
59.9693 903.0
60.2084 931.0
60.4474 875.0
60.6865 912.0
60.9256 871.0
61.1646 858.0
61.4037 784.0
61.6428 773.0
61.8818 806.0
62.1209 816.0
62.3599 793.0
62.599 793.0
62.8381 835.0
63.0771 809.0
63.3162 740.0
63.5552 752.0
63.7943 778.0
64.0334 746.0
64.2724 773.0
64.5115 782.0
64.7506 761.0
64.9896 758.0
65.2287 691.0
65.4677 760.0
65.7068 720.0
65.9459 764.0
66.1849 743.0
66.424 686.0
66.6631 718.0
66.9021 719.0
67.1412 718.0
67.3802 746.0
67.6193 662.0
67.8584 684.0
68.0974 736.0
68.3365 724.0
68.5755 713.0
68.8146 691.0
69.0537 691.0
69.2927 724.0
69.5318 740.0
69.7709 679.0
70.0099 705.0
70.249 648.0
70.488 723.0
70.7271 659.0
70.9662 713.0
71.2052 699.0
71.4443 738.0
71.6833 684.0
71.9224 641.0
72.1615 653.0
72.4005 651.0
72.6396 653.0
72.8787 674.0
73.1177 642.0
73.3568 654.0
73.5958 686.0
73.8349 692.0
74.074 673.0
74.313 693.0
74.5521 697.0
74.7911 670.0
75.0302 671.0
75.2693 719.0
75.5083 710.0
75.7474 715.0
75.9865 653.0
76.2255 699.0
76.4646 675.0
76.7036 732.0
76.9427 679.0
77.1818 655.0
77.4208 658.0
77.6599 634.0
77.899 675.0
78.138 694.0
78.3771 685.0
78.6161 746.0
78.8552 728.0
79.0943 702.0
79.3333 664.0
79.5724 697.0
79.8114 594.0
79.9962 668.0