File: XRD/2025_06_07_Felodipine_3_60_8min_XRD.xy
3.00043 41946.0
3.19603 33427.0
3.39163 26135.0
3.58722 19872.0
3.78282 15042.0
3.97841 11011.0
4.17401 7808.0
4.3696 5501.0
4.5652 3744.0
4.7608 2645.0
4.95639 2281.0
5.15199 2010.0
5.34758 2003.0
5.54318 1475.0
5.73878 1160.0
5.93437 997.0
6.12997 917.0
6.32556 893.0
6.52116 782.0
6.71676 698.0
6.91235 639.0
7.10795 536.0
7.30354 512.0
7.49914 477.0
7.69474 473.0
7.89033 411.0
8.08593 428.0
8.28152 409.0
8.47712 409.0
8.67271 410.0
8.86831 411.0
9.06391 407.0
9.2595 430.0
9.4551 452.0
9.65069 541.0
9.84629 994.0
10.0419 3000.0
10.2375 7110.0
10.4331 2502.0
10.6287 1453.0
10.8243 2105.0
11.0199 1172.0
11.2155 666.0
11.4111 513.0
11.6067 485.0
11.8022 449.0
11.9978 430.0
12.1934 400.0
12.389 412.0
12.5846 451.0
12.7802 442.0
12.9758 648.0
13.1714 1159.0
13.367 630.0
13.5626 467.0
13.7582 409.0
13.9538 372.0
14.1494 460.0
14.345 790.0
14.5406 1156.0
14.7362 632.0
14.9318 575.0
15.1274 457.0
15.323 383.0
15.5186 381.0
15.7142 439.0
15.9098 595.0
16.1054 1823.0
16.301 3243.0
16.4966 3301.0
16.6921 1694.0
16.8877 634.0
17.0833 451.0
17.2789 411.0
17.4745 492.0
17.6701 752.0
17.8657 498.0
18.0613 424.0
18.2569 373.0
18.4525 382.0
18.6481 343.0
18.8437 403.0
19.0393 393.0
19.2349 443.0
19.4305 867.0
19.6261 657.0
19.8217 446.0
20.0173 460.0
20.2129 660.0
20.4085 2216.0
20.6041 1670.0
20.7997 798.0
20.9953 572.0
21.1909 445.0
21.3864 462.0
21.582 722.0
21.7776 1362.0
21.9732 1386.0
22.1688 790.0
22.3644 595.0
22.56 582.0
22.7556 627.0
22.9512 1349.0
23.1468 5958.0
23.3424 5663.0
23.538 1598.0
23.7336 839.0
23.9292 631.0
24.1248 602.0
24.3204 1537.0
24.516 2939.0
24.7116 975.0
24.9072 677.0
25.1028 937.0
25.2984 2580.0
25.494 1748.0
25.6896 1018.0
25.8852 667.0
26.0808 912.0
26.2763 2549.0
26.4719 3028.0
26.6675 1230.0
26.8631 660.0
27.0587 771.0
27.2543 954.0
27.4499 885.0
27.6455 681.0
27.8411 473.0
28.0367 492.0
28.2323 502.0
28.4279 433.0
28.6235 423.0
28.8191 494.0
29.0147 821.0
29.2103 1091.0
29.4059 1672.0
29.6015 1058.0
29.7971 648.0
29.9927 1101.0
30.1883 1302.0
30.3839 768.0
30.5795 597.0
30.7751 629.0
30.9706 694.0
31.1662 501.0
31.3618 451.0
31.5574 446.0
31.753 632.0
31.9486 1100.0
32.1442 648.0
32.3398 522.0
32.5354 1007.0
32.731 1079.0
32.9266 683.0
33.1222 467.0
33.3178 656.0
33.5134 820.0
33.709 821.0
33.9046 640.0
34.1002 480.0
34.2958 424.0
34.4914 663.0
34.687 759.0
34.8826 514.0
35.0782 396.0
35.2738 401.0
35.4694 389.0
35.665 428.0
35.8605 813.0
36.0561 718.0
36.2517 443.0
36.4473 435.0
36.6429 529.0
36.8385 739.0
37.0341 551.0
37.2297 464.0
37.4253 514.0
37.6209 498.0
37.8165 406.0
38.0121 341.0
38.2077 393.0
38.4033 451.0
38.5989 469.0
38.7945 400.0
38.9901 480.0
39.1857 389.0
39.3813 758.0
39.5769 930.0
39.7725 842.0
39.9681 667.0
40.1637 498.0
40.3593 485.0
40.5548 500.0
40.7504 569.0
40.946 571.0
41.1416 456.0
41.3372 459.0
41.5328 501.0
41.7284 477.0
41.924 512.0
42.1196 465.0
42.3152 408.0
42.5108 419.0
42.7064 509.0
42.902 522.0
43.0976 509.0
43.2932 400.0
43.4888 351.0
43.6844 351.0
43.88 359.0
44.0756 511.0
44.2712 606.0
44.4668 526.0
44.6624 462.0
44.858 419.0
45.0536 457.0
45.2492 386.0
45.4447 392.0
45.6403 486.0
45.8359 475.0
46.0315 418.0
46.2271 398.0
46.4227 350.0
46.6183 319.0
46.8139 362.0
47.0095 391.0
47.2051 476.0
47.4007 620.0
47.5963 652.0
47.7919 518.0
47.9875 457.0
48.1831 367.0
48.3787 304.0
48.5743 331.0
48.7699 373.0
48.9655 312.0
49.1611 375.0
49.3567 351.0
49.5523 360.0
49.7479 438.0
49.9435 541.0
50.139 468.0
50.3346 399.0
50.5302 387.0
50.7258 409.0
50.9214 352.0
51.117 350.0
51.3126 336.0
51.5082 323.0
51.7038 365.0
51.8994 341.0
52.095 304.0
52.2906 291.0
52.4862 343.0
52.6818 322.0
52.8774 364.0
53.073 339.0
53.2686 296.0
53.4642 286.0
53.6598 297.0
53.8554 315.0
54.051 318.0
54.2466 303.0
54.4422 344.0
54.6378 333.0
54.8334 317.0
55.0289 310.0
55.2245 326.0
55.4201 315.0
55.6157 287.0
55.8113 292.0
56.0069 269.0
56.2025 283.0
56.3981 340.0
56.5937 297.0
56.7893 280.0
56.9849 239.0
57.1805 258.0
57.3761 257.0
57.5717 293.0
57.7673 280.0
57.9629 284.0
58.1585 243.0
58.3541 235.0
58.5497 250.0
58.7453 277.0
58.9409 294.0
59.1365 246.0
59.3321 303.0
59.5277 265.0
59.7233 245.0
59.9188 215.0
59.9949 232.0