File: XRD/2025_06_03_CBD_3_60_8min.xy
3.00043 43855.0
3.19603 34825.0
3.39163 26776.0
3.58722 20303.0
3.78282 15082.0
3.97841 10786.0
4.17401 7784.0
4.3696 5501.0
4.5652 3771.0
4.7608 2661.0
4.95639 2533.0
5.15199 2932.0
5.34758 2134.0
5.54318 1782.0
5.73878 1369.0
5.93437 1336.0
6.12997 1206.0
6.32556 1181.0
6.52116 1083.0
6.71676 977.0
6.91235 984.0
7.10795 898.0
7.30354 927.0
7.49914 867.0
7.69474 834.0
7.89033 952.0
8.08593 1070.0
8.28152 1396.0
8.47712 950.0
8.67271 1005.0
8.86831 1133.0
9.06391 1802.0
9.2595 6867.0
9.4551 7145.0
9.65069 27026.0
9.84629 5951.0
10.0419 9136.0
10.2375 22657.0
10.4331 2605.0
10.6287 1259.0
10.8243 1232.0
11.0199 1176.0
11.2155 1220.0
11.4111 1598.0
11.6067 4248.0
11.8022 4397.0
11.9978 1270.0
12.1934 1404.0
12.389 3345.0
12.5846 3618.0
12.7802 1779.0
12.9758 5176.0
13.1714 7586.0
13.367 1695.0
13.5626 2542.0
13.7582 5745.0
13.9538 1393.0
14.1494 925.0
14.345 945.0
14.5406 1065.0
14.7362 1378.0
14.9318 4469.0
15.1274 10446.0
15.323 3276.0
15.5186 1307.0
15.7142 961.0
15.9098 1160.0
16.1054 1336.0
16.301 1076.0
16.4966 1619.0
16.6921 1680.0
16.8877 2367.0
17.0833 2979.0
17.2789 14261.0
17.4745 10168.0
17.6701 1877.0
17.8657 3684.0
18.0613 1719.0
18.2569 1443.0
18.4525 2392.0
18.6481 10504.0
18.8437 20504.0
19.0393 5435.0
19.2349 2186.0
19.4305 4542.0
19.6261 2643.0
19.8217 1747.0
20.0173 1572.0
20.2129 2085.0
20.4085 9596.0
20.6041 7965.0
20.7997 3512.0
20.9953 2270.0
21.1909 1536.0
21.3864 2383.0
21.582 8261.0
21.7776 4601.0
21.9732 9298.0
22.1688 17737.0
22.3644 3291.0
22.56 6323.0
22.7556 6259.0
22.9512 2363.0
23.1468 1839.0
23.3424 1571.0
23.538 2594.0
23.7336 3345.0
23.9292 1944.0
24.1248 1503.0
24.3204 3015.0
24.516 2578.0
24.7116 1957.0
24.9072 1300.0
25.1028 2021.0
25.2984 2597.0
25.494 2012.0
25.6896 1297.0
25.8852 1112.0
26.0808 1327.0
26.2763 2495.0
26.4719 2547.0
26.6675 1904.0
26.8631 1364.0
27.0587 1681.0
27.2543 1604.0
27.4499 2146.0
27.6455 2826.0
27.8411 1489.0
28.0367 1289.0
28.2323 1302.0
28.4279 1414.0
28.6235 1936.0
28.8191 1572.0
29.0147 3021.0
29.2103 1726.0
29.4059 1306.0
29.6015 1091.0
29.7971 892.0
29.9927 857.0
30.1883 908.0
30.3839 1198.0
30.5795 1214.0
30.7751 1173.0
30.9706 1307.0
31.1662 1685.0
31.3618 1046.0
31.5574 772.0
31.753 783.0
31.9486 871.0
32.1442 906.0
32.3398 911.0
32.5354 1598.0
32.731 1000.0
32.9266 1068.0
33.1222 1005.0
33.3178 1035.0
33.5134 888.0
33.709 891.0
33.9046 1557.0
34.1002 1322.0
34.2958 1026.0
34.4914 1101.0
34.687 1565.0
34.8826 2110.0
35.0782 1254.0
35.2738 1336.0
35.4694 919.0
35.665 795.0
35.8605 905.0
36.0561 777.0
36.2517 815.0
36.4473 1005.0
36.6429 1132.0
36.8385 1024.0
37.0341 922.0
37.2297 777.0
37.4253 844.0
37.6209 921.0
37.8165 955.0
38.0121 1143.0
38.2077 1038.0
38.4033 816.0
38.5989 739.0
38.7945 779.0
38.9901 874.0
39.1857 840.0
39.3813 794.0
39.5769 766.0
39.7725 802.0
39.9681 725.0
40.1637 968.0
40.3593 998.0
40.5548 1154.0
40.7504 837.0
40.946 764.0
41.1416 699.0
41.3372 692.0
41.5328 767.0
41.7284 974.0
41.924 865.0
42.1196 686.0
42.3152 875.0
42.5108 1020.0
42.7064 990.0
42.902 920.0
43.0976 826.0
43.2932 1073.0
43.4888 834.0
43.6844 818.0
43.88 665.0
44.0756 622.0
44.2712 797.0
44.4668 629.0
44.6624 681.0
44.858 721.0
45.0536 903.0
45.2492 795.0
45.4447 701.0
45.6403 615.0
45.8359 734.0
46.0315 729.0
46.2271 760.0
46.4227 823.0
46.6183 820.0
46.8139 741.0
47.0095 655.0
47.2051 609.0
47.4007 609.0
47.5963 764.0
47.7919 624.0
47.9875 675.0
48.1831 614.0
48.3787 605.0
48.5743 548.0
48.7699 678.0
48.9655 705.0
49.1611 695.0
49.3567 728.0
49.5523 643.0
49.7479 592.0
49.9435 646.0
50.139 677.0
50.3346 612.0
50.5302 553.0
50.7258 579.0
50.9214 542.0
51.117 540.0
51.3126 511.0
51.5082 515.0
51.7038 595.0
51.8994 570.0
52.095 648.0
52.2906 594.0
52.4862 568.0
52.6818 540.0
52.8774 544.0
53.073 528.0
53.2686 479.0
53.4642 478.0
53.6598 507.0
53.8554 468.0
54.051 486.0
54.2466 571.0
54.4422 459.0
54.6378 449.0
54.8334 510.0
55.0289 511.0
55.2245 475.0
55.4201 478.0
55.6157 533.0
55.8113 472.0
56.0069 472.0
56.2025 443.0
56.3981 430.0
56.5937 403.0
56.7893 449.0
56.9849 415.0
57.1805 473.0
57.3761 406.0
57.5717 411.0
57.7673 352.0
57.9629 394.0
58.1585 389.0
58.3541 391.0
58.5497 456.0
58.7453 427.0
58.9409 426.0
59.1365 379.0
59.3321 385.0
59.5277 430.0
59.7233 383.0
59.9188 351.0
59.9949 334.0