File: XRD/2025_06_03_CBN_3_60_8min.xy
3.00043 43532.0
3.19603 34481.0
3.39163 26560.0
3.58722 20106.0
3.78282 15015.0
3.97841 11177.0
4.17401 7971.0
4.3696 5580.0
4.5652 3931.0
4.7608 2969.0
4.95639 2715.0
5.15199 2859.0
5.34758 3903.0
5.54318 7683.0
5.73878 33226.0
5.93437 94716.0
6.12997 13392.0
6.32556 3895.0
6.52116 2469.0
6.71676 2128.0
6.91235 1813.0
7.10795 1549.0
7.30354 1349.0
7.49914 1252.0
7.69474 1124.0
7.89033 1040.0
8.08593 1001.0
8.28152 889.0
8.47712 781.0
8.67271 777.0
8.86831 751.0
9.06391 815.0
9.2595 867.0
9.4551 1153.0
9.65069 2009.0
9.84629 4775.0
10.0419 2440.0
10.2375 1435.0
10.4331 919.0
10.6287 769.0
10.8243 822.0
11.0199 895.0
11.2155 1789.0
11.4111 2971.0
11.6067 7333.0
11.8022 11201.0
11.9978 8369.0
12.1934 1147.0
12.389 1082.0
12.5846 1658.0
12.7802 2882.0
12.9758 1499.0
13.1714 1498.0
13.367 1387.0
13.5626 871.0
13.7582 1116.0
13.9538 2384.0
14.1494 3307.0
14.345 1904.0
14.5406 6605.0
14.7362 5432.0
14.9318 1376.0
15.1274 1264.0
15.323 1779.0
15.5186 1210.0
15.7142 1458.0
15.9098 1177.0
16.1054 1039.0
16.301 1523.0
16.4966 1751.0
16.6921 1199.0
16.8877 1813.0
17.0833 1500.0
17.2789 1332.0
17.4745 1813.0
17.6701 4977.0
17.8657 8689.0
18.0613 1864.0
18.2569 7049.0
18.4525 9905.0
18.6481 7146.0
18.8437 11347.0
19.0393 2517.0
19.2349 1797.0
19.4305 1486.0
19.6261 1912.0
19.8217 2232.0
20.0173 2107.0
20.2129 2258.0
20.4085 2190.0
20.6041 4035.0
20.7997 3812.0
20.9953 9036.0
21.1909 4854.0
21.3864 1688.0
21.582 2097.0
21.7776 1406.0
21.9732 1304.0
22.1688 1402.0
22.3644 1253.0
22.56 1921.0
22.7556 2010.0
22.9512 2138.0
23.1468 2558.0
23.3424 4259.0
23.538 11533.0
23.7336 17049.0
23.9292 17163.0
24.1248 2282.0
24.3204 1856.0
24.516 1373.0
24.7116 1925.0
24.9072 1695.0
25.1028 1064.0
25.2984 1091.0
25.494 1773.0
25.6896 1652.0
25.8852 1082.0
26.0808 964.0
26.2763 967.0
26.4719 1074.0
26.6675 1006.0
26.8631 1199.0
27.0587 1114.0
27.2543 992.0
27.4499 824.0
27.6455 1083.0
27.8411 2045.0
28.0367 1162.0
28.2323 1032.0
28.4279 950.0
28.6235 907.0
28.8191 830.0
29.0147 1450.0
29.2103 1091.0
29.4059 921.0
29.6015 2092.0
29.7971 2751.0
29.9927 3161.0
30.1883 973.0
30.3839 894.0
30.5795 895.0
30.7751 927.0
30.9706 917.0
31.1662 1068.0
31.3618 1040.0
31.5574 834.0
31.753 905.0
31.9486 803.0
32.1442 726.0
32.3398 753.0
32.5354 713.0
32.731 684.0
32.9266 623.0
33.1222 686.0
33.3178 805.0
33.5134 725.0
33.709 662.0
33.9046 650.0
34.1002 592.0
34.2958 581.0
34.4914 712.0
34.687 834.0
34.8826 791.0
35.0782 717.0
35.2738 737.0
35.4694 668.0
35.665 856.0
35.8605 2217.0
36.0561 2976.0
36.2517 999.0
36.4473 805.0
36.6429 812.0
36.8385 764.0
37.0341 720.0
37.2297 855.0
37.4253 837.0
37.6209 710.0
37.8165 651.0
38.0121 708.0
38.2077 687.0
38.4033 652.0
38.5989 636.0
38.7945 748.0
38.9901 1288.0
39.1857 1120.0
39.3813 640.0
39.5769 671.0
39.7725 706.0
39.9681 713.0
40.1637 648.0
40.3593 696.0
40.5548 715.0
40.7504 803.0
40.946 625.0
41.1416 703.0
41.3372 682.0
41.5328 743.0
41.7284 764.0
41.924 778.0
42.1196 734.0
42.3152 683.0
42.5108 826.0
42.7064 1118.0
42.902 899.0
43.0976 766.0
43.2932 918.0
43.4888 1110.0
43.6844 913.0
43.88 828.0
44.0756 962.0
44.2712 1258.0
44.4668 940.0
44.6624 733.0
44.858 679.0
45.0536 657.0
45.2492 581.0
45.4447 577.0
45.6403 556.0
45.8359 579.0
46.0315 624.0
46.2271 625.0
46.4227 609.0
46.6183 666.0
46.8139 660.0
47.0095 724.0
47.2051 619.0
47.4007 618.0
47.5963 587.0
47.7919 615.0
47.9875 583.0
48.1831 576.0
48.3787 711.0
48.5743 772.0
48.7699 807.0
48.9655 769.0
49.1611 606.0
49.3567 617.0
49.5523 975.0
49.7479 953.0
49.9435 665.0
50.139 593.0
50.3346 623.0
50.5302 644.0
50.7258 525.0
50.9214 589.0
51.117 563.0
51.3126 518.0
51.5082 493.0
51.7038 527.0
51.8994 553.0
52.095 519.0
52.2906 589.0
52.4862 519.0
52.6818 469.0
52.8774 404.0
53.073 479.0
53.2686 518.0
53.4642 468.0
53.6598 481.0
53.8554 472.0
54.051 492.0
54.2466 482.0
54.4422 422.0
54.6378 408.0
54.8334 438.0
55.0289 542.0
55.2245 814.0
55.4201 789.0
55.6157 626.0
55.8113 472.0
56.0069 461.0
56.2025 523.0
56.3981 499.0
56.5937 443.0
56.7893 405.0
56.9849 403.0
57.1805 424.0
57.3761 435.0
57.5717 403.0
57.7673 412.0
57.9629 426.0
58.1585 444.0
58.3541 401.0
58.5497 389.0
58.7453 368.0
58.9409 361.0
59.1365 344.0
59.3321 406.0
59.5277 351.0
59.7233 392.0
59.9188 377.0
59.9949 379.0