File: XRD/2025_06_03_CBD_SA_MC15_3_60_8min.xy
3.00043 43436.0
3.19603 34526.0
3.39163 26633.0
3.58722 20277.0
3.78282 15053.0
3.97841 11077.0
4.17401 7812.0
4.3696 5556.0
4.5652 3896.0
4.7608 2789.0
4.95639 2536.0
5.15199 2502.0
5.34758 2178.0
5.54318 1740.0
5.73878 1446.0
5.93437 1333.0
6.12997 1161.0
6.32556 1129.0
6.52116 1045.0
6.71676 1038.0
6.91235 932.0
7.10795 899.0
7.30354 830.0
7.49914 806.0
7.69474 825.0
7.89033 796.0
8.08593 868.0
8.28152 1117.0
8.47712 900.0
8.67271 821.0
8.86831 898.0
9.06391 1403.0
9.2595 2952.0
9.4551 4474.0
9.65069 9944.0
9.84629 8136.0
10.0419 3189.0
10.2375 6402.0
10.4331 1279.0
10.6287 1001.0
10.8243 1010.0
11.0199 1343.0
11.2155 3099.0
11.4111 6795.0
11.6067 3025.0
11.8022 4468.0
11.9978 1084.0
12.1934 1310.0
12.389 2713.0
12.5846 3872.0
12.7802 3725.0
12.9758 8602.0
13.1714 5914.0
13.367 1412.0
13.5626 1773.0
13.7582 4255.0
13.9538 1549.0
14.1494 944.0
14.345 915.0
14.5406 991.0
14.7362 1229.0
14.9318 2906.0
15.1274 5381.0
15.323 1549.0
15.5186 1156.0
15.7142 969.0
15.9098 1155.0
16.1054 1691.0
16.301 1028.0
16.4966 1539.0
16.6921 1853.0
16.8877 1600.0
17.0833 2218.0
17.2789 5687.0
17.4745 7405.0
17.6701 1303.0
17.8657 1733.0
18.0613 1740.0
18.2569 2062.0
18.4525 1645.0
18.6481 5040.0
18.8437 8119.0
19.0393 4478.0
19.2349 2255.0
19.4305 2773.0
19.6261 2956.0
19.8217 1743.0
20.0173 1237.0
20.2129 1415.0
20.4085 3692.0
20.6041 5914.0
20.7997 2558.0
20.9953 2671.0
21.1909 1299.0
21.3864 1725.0
21.582 5217.0
21.7776 4876.0
21.9732 5387.0
22.1688 10018.0
22.3644 3444.0
22.56 7625.0
22.7556 19591.0
22.9512 9101.0
23.1468 2888.0
23.3424 4148.0
23.538 3230.0
23.7336 4072.0
23.9292 2394.0
24.1248 1510.0
24.3204 2652.0
24.516 3601.0
24.7116 8758.0
24.9072 3253.0
25.1028 1945.0
25.2984 2645.0
25.494 1806.0
25.6896 1556.0
25.8852 1194.0
26.0808 1290.0
26.2763 1642.0
26.4719 2243.0
26.6675 1990.0
26.8631 1492.0
27.0587 1832.0
27.2543 2063.0
27.4499 2995.0
27.6455 8492.0
27.8411 5872.0
28.0367 1457.0
28.2323 1347.0
28.4279 1467.0
28.6235 1597.0
28.8191 1580.0
29.0147 2457.0
29.2103 2081.0
29.4059 1288.0
29.6015 1263.0
29.7971 952.0
29.9927 877.0
30.1883 934.0
30.3839 1131.0
30.5795 1154.0
30.7751 1136.0
30.9706 1098.0
31.1662 1482.0
31.3618 1290.0
31.5574 1274.0
31.753 995.0
31.9486 1257.0
32.1442 1617.0
32.3398 1279.0
32.5354 1626.0
32.731 1175.0
32.9266 1060.0
33.1222 1027.0
33.3178 1199.0
33.5134 954.0
33.709 992.0
33.9046 1271.0
34.1002 1450.0
34.2958 1020.0
34.4914 1112.0
34.687 1302.0
34.8826 1145.0
35.0782 1093.0
35.2738 1187.0
35.4694 1041.0
35.665 1208.0
35.8605 1351.0
36.0561 1197.0
36.2517 850.0
36.4473 1025.0
36.6429 1111.0
36.8385 1087.0
37.0341 1121.0
37.2297 829.0
37.4253 814.0
37.6209 850.0
37.8165 921.0
38.0121 903.0
38.2077 897.0
38.4033 752.0
38.5989 743.0
38.7945 893.0
38.9901 963.0
39.1857 1110.0
39.3813 1192.0
39.5769 910.0
39.7725 1138.0
39.9681 1582.0
40.1637 1008.0
40.3593 912.0
40.5548 989.0
40.7504 1110.0
40.946 990.0
41.1416 957.0
41.3372 871.0
41.5328 735.0
41.7284 810.0
41.924 888.0
42.1196 733.0
42.3152 734.0
42.5108 976.0
42.7064 1025.0
42.902 817.0
43.0976 945.0
43.2932 952.0
43.4888 777.0
43.6844 690.0
43.88 615.0
44.0756 627.0
44.2712 635.0
44.4668 717.0
44.6624 670.0
44.858 695.0
45.0536 873.0
45.2492 863.0
45.4447 738.0
45.6403 831.0
45.8359 834.0
46.0315 1138.0
46.2271 911.0
46.4227 761.0
46.6183 736.0
46.8139 902.0
47.0095 711.0
47.2051 615.0
47.4007 696.0
47.5963 782.0
47.7919 749.0
47.9875 737.0
48.1831 772.0
48.3787 721.0
48.5743 603.0
48.7699 632.0
48.9655 619.0
49.1611 687.0
49.3567 665.0
49.5523 630.0
49.7479 582.0
49.9435 620.0
50.139 611.0
50.3346 633.0
50.5302 625.0
50.7258 651.0
50.9214 601.0
51.117 624.0
51.3126 566.0
51.5082 603.0
51.7038 636.0
51.8994 582.0
52.095 617.0
52.2906 595.0
52.4862 552.0
52.6818 546.0
52.8774 597.0
53.073 535.0
53.2686 532.0
53.4642 545.0
53.6598 620.0
53.8554 653.0
54.051 572.0
54.2466 547.0
54.4422 517.0
54.6378 483.0
54.8334 453.0
55.0289 478.0
55.2245 466.0
55.4201 495.0
55.6157 525.0
55.8113 499.0
56.0069 479.0
56.2025 493.0
56.3981 483.0
56.5937 450.0
56.7893 503.0
56.9849 482.0
57.1805 451.0
57.3761 496.0
57.5717 491.0
57.7673 429.0
57.9629 451.0
58.1585 417.0
58.3541 412.0
58.5497 429.0
58.7453 444.0
58.9409 464.0
59.1365 443.0
59.3321 398.0
59.5277 478.0
59.7233 425.0
59.9188 370.0
59.9949 445.0