File: XRD/Figure1_SQdata.csv
Q,CBD_75C_SQ,75C_EPSR,Q,CBD_SCL_SQ,25C_EPSR
0.5,1.02741,1.70506,0.1,-1.47961,-1.87369
0.65,1.26021,1.40877,0.25,-1.29789,-0.87705
0.8,1.3021,1.62684,0.4,-0.62681,-0.20878
0.95,1.80397,1.96775,0.55,0.19614,0.03629
1.1,2.07742,2.19796,0.7,-0.26416,0.21385
1.25,2.29219,2.45548,0.85,-0.12202,0.25702
1.4,2.5405,2.57816,1,0.57604,0.37468
1.55,2.40086,2.4452,1.15,0.83196,0.92423
1.7,1.97211,2.11672,1.3,1.25071,1.42459
1.85,1.55634,1.63854,1.45,1.51505,1.34523
2,1.25577,1.31583,1.6,1.18994,0.98741
2.15,1.04915,1.23525,1.75,0.62862,0.60621
2.3,0.9352,1.07567,1.9,0.19278,0.09063
2.45,0.92116,0.9645,2.05,-0.09356,-0.35887
2.6,0.98436,1.12734,2.2,-0.29989,-0.49961
2.75,1.10661,1.29566,2.35,-0.39803,-0.51452
2.9,1.26119,1.38955,2.5,-0.37051,-0.55665
3.05,1.351,1.48647,2.65,-0.23958,-0.4796
3.2,1.32371,1.42309,2.8,-0.0466,-0.21608
3.35,1.22959,1.26394,2.95,0.11557,0.02741
3.5,1.14213,1.18844,3.1,0.15672,0.04582
3.65,1.09165,1.11829,3.25,0.05309,-0.0836
3.8,1.07791,1.04234,3.4,-0.10356,-0.18821
3.95,1.10218,1.00637,3.55,-0.24313,-0.27916
4.1,1.15445,0.96902,3.7,-0.35007,-0.39557
4.25,1.23248,0.98758,3.85,-0.42419,-0.47355
4.4,1.33315,1.07835,4,-0.46925,-0.51063
4.55,1.46781,1.18641,4.15,-0.48824,-0.54583
4.7,1.6527,1.39058,4.3,-0.48015,-0.54992
4.85,1.89571,1.6972,4.45,-0.42594,-0.49439
5,2.16246,1.97166,4.6,-0.30411,-0.36536
5.15,2.37651,2.17806,4.75,-0.10125,-0.14852
5.3,2.43525,2.31324,4.9,0.16853,0.12767
5.45,2.33057,2.32177,5.05,0.45009,0.42361
5.6,2.15825,2.19642,5.2,0.67507,0.68202
5.75,1.97924,1.98641,5.35,0.79744,0.80948
5.9,1.82185,1.77413,5.5,0.80143,0.79623
6.05,1.68575,1.60757,5.65,0.70041,0.70863
6.2,1.57874,1.45493,5.8,0.52465,0.56464
6.35,1.49523,1.32665,5.95,0.31993,0.37848
6.5,1.42786,1.26403,6.1,0.12757,0.19595
6.65,1.35929,1.21869,6.25,-0.03227,0.03148
6.8,1.28772,1.1538,6.4,-0.15268,-0.1023
6.95,1.2194,1.1162,6.55,-0.24255,-0.18671
7.1,1.16781,1.11508,6.7,-0.31279,-0.2499
7.25,1.15392,1.12125,6.85,-0.37325,-0.31406
7.4,1.18362,1.15791,7,-0.41712,-0.36232
7.55,1.25951,1.24967,7.15,-0.44003,-0.38868
7.7,1.36252,1.35429,7.3,-0.42794,-0.38765
7.85,1.46492,1.42365,7.45,-0.37825,-0.34838
8,1.54869,1.46379,7.6,-0.29868,-0.28618
8.15,1.60818,1.50333,7.75,-0.20925,-0.21862
8.3,1.65394,1.5551,7.9,-0.12573,-0.14994
8.45,1.6884,1.61026,8.05,-0.05548,-0.0907
8.6,1.7055,1.64704,8.2,0.00804,-0.03944
8.75,1.69943,1.65627,8.35,0.06945,0.02179
8.9,1.66794,1.64082,8.5,0.12242,0.0881
9.05,1.62607,1.60048,8.65,0.15182,0.13272
9.2,1.58009,1.55627,8.8,0.15443,0.14251
9.35,1.54401,1.54185,8.95,0.13053,0.12713
9.5,1.51875,1.55251,9.1,0.09255,0.10105
9.65,1.50653,1.56648,9.25,0.06198,0.07314
9.8,1.50808,1.58936,9.4,0.04459,0.05508
9.95,1.52594,1.63063,9.55,0.04505,0.05611
10.1,1.55067,1.6768,9.7,0.062,0.06901
10.25,1.5738,1.70412,9.85,0.08877,0.08729
10.4,1.57979,1.69971,10,0.1267,0.11808
10.55,1.56943,1.66383,10.15,0.16858,0.15913
10.7,1.52617,1.59649,10.3,0.20012,0.1923
10.85,1.46751,1.50768,10.45,0.21077,0.20186
11,1.39867,1.4245,10.6,0.18711,0.17915
11.15,1.33266,1.35983,10.75,0.13257,0.12607
11.3,1.28321,1.31168,10.9,0.05476,0.05807
11.45,1.2594,1.28592,11.05,-0.0287,-0.01105
11.6,1.24559,1.27999,11.2,-0.10391,-0.07581
11.75,1.25158,1.28212,11.35,-0.15834,-0.12844
11.9,1.2713,1.29263,11.5,-0.19358,-0.16335
12.05,1.30294,1.3132,11.65,-0.21525,-0.18569
12.2,1.3433,1.34502,11.8,-0.22541,-0.20147
12.35,1.38988,1.39586,11.95,-0.22448,-0.20872
12.5,1.43873,1.461,12.1,-0.21471,-0.20286
12.65,1.48801,1.52606,12.25,-0.19183,-0.18238
12.8,1.53348,1.58645,12.4,-0.15353,-0.14894
12.95,1.56876,1.63746,12.55,-0.09885,-0.10449
13.1,1.59142,1.66969,12.7,-0.03317,-0.05004
13.25,1.60129,1.67947,12.85,0.03663,0.00977
13.4,1.59658,1.6661,13,0.10274,0.066
13.55,1.5751,1.63194,13.15,0.15328,0.11183
13.7,1.54033,1.58799,13.3,0.18213,0.14252
13.85,1.50819,1.54733,13.45,0.18418,0.1526
14,1.48588,1.51605,13.6,0.16647,0.142
14.15,1.46055,1.49299,13.75,0.13574,0.11865
14.3,1.44485,1.47712,13.9,0.09966,0.09082
14.45,1.43286,1.47107,14.05,0.06792,0.0639
14.6,1.42567,1.47374,14.2,0.03991,0.0418
14.75,1.42485,1.47902,14.35,0.01975,0.02519
14.9,1.42744,1.48372,14.5,-8.66E-04,0.01216
15.05,1.43782,1.48857,14.65,-0.01568,0.00173
15.2,1.45068,1.49413,14.8,-0.02381,-0.00613
15.35,1.45899,1.49861,14.95,-0.02724,-0.01173
15.5,1.47853,1.49826,15.1,-0.01981,-0.01582
15.65,1.49074,1.49247,15.25,-0.01177,-0.01921
15.8,1.49497,1.48383,15.4,-0.00248,-0.02115
15.95,1.5025,1.47309,15.55,0.00271,-0.02051
16.1,1.496,1.46113,15.7,0.00417,-0.01917
16.25,1.49344,1.45104,15.85,-1.08E-04,-0.01945
16.4,1.49016,1.44449,16,-0.01056,-0.02102
16.55,1.48643,1.44222,16.15,-0.02825,-0.02434
16.7,1.49806,1.44653,16.3,-0.04801,-0.03163
16.85,1.49927,1.45894,16.45,-0.06715,-0.04191
17,1.51455,1.47816,16.6,-0.07913,-0.05073
17.15,1.52157,1.50083,16.75,-0.08708,-0.05444
17.3,1.52185,1.52308,16.9,-0.08532,-0.05118
17.45,1.52399,1.54214,17.05,-0.0747,-0.04034
17.6,1.52245,1.55645,17.2,-0.05979,-0.02338
17.75,1.53341,1.56469,17.35,-0.04197,-0.00358
17.9,1.53016,1.5657,17.5,-0.01982,0.01551
18.05,1.53296,1.55932,17.65,-9.03E-04,0.03149
18.2,1.51892,1.5468,17.8,0.01411,0.04382
18.35,1.52201,1.5303,17.95,0.02775,0.05227
18.5,1.51494,1.51219,18.1,0.03528,0.0555
18.65,1.50285,1.49487,18.25,0.03783,0.05278
18.8,1.49699,1.4805,18.4,0.03204,0.04529
18.95,1.48461,1.47091,18.55,0.01892,0.03446
19.1,1.4923,1.46685,18.7,0.00276,0.02138
19.25,1.49482,1.46742,18.85,-0.00169,0.00786
19.4,1.50517,1.47101,19,-0.01561,-0.00399
19.55,1.49888,1.47621,19.15,-0.0289,-0.01285
19.7,1.52011,1.48148,19.3,-0.03634,-0.01835
19.85,1.52276,1.4861,19.45,-0.03063,-0.02095
20,1.53289,1.49093,19.6,-0.02676,-0.02166
20.15,1.53015,1.49681,19.75,-0.01657,-0.02132
20.3,1.53192,1.50343,19.9,-0.01124,-0.02024
20.45,1.5464,1.50982,20.05,-0.00299,-0.0183
20.6,1.53707,1.5146,20.2,-0.00527,-0.01529
20.75,1.54677,1.5165,20.35,0.00267,-0.01133
20.9,1.55383,1.51532,20.5,0.01369,-0.00687
21.05,1.56209,1.51174,20.65,0.01722,-0.00251
21.2,1.56923,1.50672,20.8,0.02628,9.69E-04
21.35,1.56219,1.50157,20.95,0.04203,0.00324
21.5,1.55196,1.4976,21.1,0.04665,0.00495
21.65,1.54571,1.49549,21.25,0.04943,0.00668
21.8,1.54281,1.49528,21.4,0.05371,0.00802
21.95,1.52321,1.49664,21.55,0.05276,0.00821
22.1,1.52822,1.49884,21.7,0.05145,0.00718
22.25,1.51505,1.50109,21.85,0.04391,0.00558
22.4,1.50901,1.5029,22,0.04274,0.00411
22.55,1.50176,1.50374,22.15,0.02895,0.0032
22.7,1.51731,1.50286,22.3,0.03635,0.00299
22.85,1.51064,1.50005,22.45,0.03002,0.00333
23,1.52002,1.496,22.6,0.03546,0.00374
23.15,1.51948,1.49189,22.75,0.02265,0.00369
23.3,1.50995,1.4888,22.9,0.00827,0.00297
23.45,1.50142,1.48731,23.05,-0.0102,0.00151
23.6,1.47534,1.48759,23.2,-0.02002,-7.41E-04
23.75,1.46522,1.48959,23.35,-0.03393,-0.00376
23.9,1.45035,1.49314,23.5,-0.03708,-0.00724
,,1.49769,23.65,-0.04313,-0.01058
,,1.50241,23.8,-0.04028,-0.01313
,,1.50659,23.95,-0.0421,-0.01421
,,1.50988,24.1,-0.01952,-0.0134
,,1.51221,24.25,-0.00387,-0.01063
,,1.51361,24.4,0.01033,-0.00627
,,1.51413,24.55,0.01205,-0.00103
,,1.51395,24.7,0.02237,0.00418
,,1.51331,24.85,0.02593,0.0085
,,1.51225,25,0.03232,0.01141
,,1.51048,,,0.01285
,,1.50769,,,0.01307
,,1.50385,,,0.01258
,,1.49913,,,0.01185
,,1.49393,,,0.01107
,,1.48898,,,0.01006
,,1.48514,,,0.00844
,,1.48305,,,0.00589
,,1.48286,,,0.00238
,,1.48423,,,-0.00173
,,1.48655,,,-0.00584
,,1.48928,,,-0.00934
,,1.49197,,,-0.01178
,,1.49438,,,-0.01294
,,1.49646,,,-0.01292
,,1.49837,,,-0.01197
,,1.50027,,,-0.01045
,,1.50223,,,-0.0087
,,1.50427,,,-0.007
,,1.50642,,,-0.00553
,,1.50861,,,-0.00427
,,1.5107,,,-0.00304
,,1.51242,,,-0.00164
,,1.51354,,,1.57E-05
,,1.5139,,,0.00189
,,1.51348,,,0.0039
,,1.51227,,,0.00595
,,1.51029,,,0.00793
,,1.50761,,,0.00976
,,1.50442,,,0.01128
,,,,,0.01233
,,,,,0.0127
,,,,,0.01224