File: XRD/Figure4_OOpartial.csv
r,O1-O1_75C,O1-O1_25C,r,O1-O1_MD
0,1,0,1,1
0.03,1,0,1.1,1
0.09,1,0,1.2,1
0.15,1,0,1.3,1
0.21,1,0,1.4,1
0.27,1,0,1.5,1
0.33,1,0,1.6,1
0.39,1,0,1.7,1
0.45,1,0,1.8,1
0.51,1,0,1.9,1
0.57,1,0,2,1
0.63,1,0,2.1,1
0.69,1,0,2.2,1
0.75,1,0,2.3,1
0.81,1,0,2.4,1
0.87,1,0,2.5,1.03491
0.93,1,0,2.6,1.17409
0.99,1,0,2.7,1.5692
1.05,1,0,2.8,2.17587
1.11,1,0,2.9,2.51027
1.17,1,0,3,2.55258
1.23,1,0,3.1,2.43476
1.29,1,0,3.2,2.32922
1.35,1,0,3.3,2.19299
1.41,1,0,3.4,2.06609
1.47,1,0,3.5,1.97141
1.53,1,0,3.6,1.87197
1.59,1,0,3.7,1.79672
1.65,1,0,3.8,1.73895
1.71,1,0,3.9,1.69039
1.77,1,0,4,1.65779
1.83,1,0,4.1,1.62869
1.89,1,0,4.2,1.59969
1.95,1,0,4.3,1.57377
2.01,1,0,4.4,1.55032
2.07,1,0,4.5,1.53271
2.13,1,0,4.6,1.5151
2.19,1,0,4.7,1.5016
2.25,1,0,4.8,1.4913
2.31,1,0,4.9,1.481
2.37,1.00842,0,5,1.47381
2.43,1.02545,5.65E-05,5.1,1.47381
2.49,1.03546,8.34E-04,5.2,1.47381
2.55,1.01338,0.02145,5.3,1.47381
2.61,1.02598,0.09367,5.4,1.48156
2.67,1.05808,0.17992,5.5,1.49089
2.73,1.14968,0.40113,5.6,1.50022
2.79,1.38096,0.63073,5.7,1.51511
2.85,1.65109,0.73095,5.8,1.53419
2.91,1.86983,0.782,5.9,1.5538
2.97,1.97562,0.82617,6,1.58435
3.03,1.8855,0.77709,6.1,1.6143
3.09,1.84154,0.71071,6.2,1.64377
3.15,1.77528,0.70989,6.3,1.6726
3.21,1.73977,0.83762,6.4,1.72135
3.27,1.70405,0.96327,6.5,1.7757
3.33,1.6168,0.93217,6.6,1.81702
3.39,1.56344,0.84279,6.7,1.84444
3.45,1.54864,0.77167,6.8,1.8776
3.51,1.52506,0.71157,6.9,1.91273
3.57,1.4466,0.6659,7,1.95577
3.63,1.39367,0.63621,7.1,2.01581
3.69,1.39446,0.62421,7.2,2.04865
3.75,1.42804,0.59759,7.3,2.07117
3.81,1.48455,0.54493,7.4,2.07443
3.87,1.52993,0.48196,7.5,2.06348
3.93,1.54971,0.45352,7.6,2.03559
3.99,1.574,0.43452,7.7,2.01308
4.05,1.60944,0.41495,7.8,1.99098
4.11,1.68532,0.42371,7.9,1.96973
4.17,1.75565,0.44012,8,1.95156
4.23,1.74968,0.45479,8.1,1.93977
4.29,1.7146,0.47735,8.2,1.92797
4.35,1.63244,0.50469,8.3,1.92341
4.41,1.51987,0.51522,8.4,1.92064
4.47,1.46567,0.50848,8.5,1.91787
4.53,1.39707,0.52283,8.6,1.92052
4.59,1.34526,0.55822,8.7,1.92689
4.65,1.33831,0.5876,8.8,1.93326
4.71,1.33624,0.6033,8.9,1.93804
4.77,1.35168,0.62351,9,1.94244
4.83,1.37175,0.61696,9.1,1.94661
4.89,1.37835,0.58499,9.2,1.94777
4.95,1.41035,0.56138,9.3,1.94893
5.01,1.44834,0.573,9.4,1.95173
5.07,1.51537,0.56954,9.5,1.95775
5.13001,1.57445,0.56526,9.6,1.96378
5.19001,1.63031,0.57289,9.7,1.96546
5.25001,1.65925,0.58391,9.8,1.96614
5.31001,1.6481,0.57607,9.9,1.96682
5.37001,1.54946,0.56686,10,1.96782
5.43001,1.46881,0.57929,,
5.49001,1.4072,0.60481,,
5.55001,1.40726,0.63527,,
5.61001,1.44856,0.68614,,
5.67001,1.48802,0.70926,,
5.73001,1.52171,0.71031,,
5.79001,1.56922,0.68666,,
5.85001,1.64475,0.65853,,
5.91001,1.72216,0.65557,,
5.97001,1.7769,0.65917,,
6.03001,1.83549,0.68937,,
6.09001,1.87562,0.7521,,
6.15001,1.88927,0.79575,,
6.21001,1.90122,0.81876,,
6.27001,1.91817,0.82501,,
6.33001,1.91454,0.83008,,
6.39001,1.88144,0.79656,,
6.45001,1.87978,0.7679,,
6.51002,1.90049,0.76668,,
6.57002,1.9199,0.80557,,
6.63002,1.9122,0.84336,,
6.69002,1.89562,0.88114,,
6.75002,1.92833,0.89043,,
6.81002,1.93879,0.88224,,
6.87002,1.94145,0.85916,,
6.93002,1.94358,0.88096,,
6.99002,1.96029,0.92132,,
7.05002,2.03503,0.96082,,
7.11002,2.06511,0.98904,,
7.17002,2.02443,1.02191,,
7.23002,1.97035,1.06392,,
7.29002,1.94423,1.09685,,
7.35002,1.94572,1.11803,,
7.41002,1.96301,1.13162,,
7.47002,1.95493,1.13189,,
7.53002,1.9323,1.11577,,
7.59002,1.90542,1.09445,,
7.65002,1.90049,1.08456,,
7.71002,1.90478,1.08566,,
7.77002,1.96243,1.08208,,
7.83002,2.02225,1.07601,,
7.89002,2.0317,1.07106,,
7.95003,1.98189,1.06308,,
8.01002,1.94352,1.02949,,
8.07002,1.92266,0.9969,,
8.13002,1.90415,0.99369,,
8.19002,1.90859,0.99546,,
8.25002,1.91958,0.97062,,
8.31002,1.94193,0.92785,,
8.37002,1.99517,0.88655,,
8.43002,2.05164,0.8743,,
8.49002,2.04764,0.86343,,
8.55002,1.99233,0.84919,,
8.61002,1.94533,0.84886,,
8.67002,1.9458,0.86935,,
8.73002,1.90002,0.88306,,
8.79002,1.87618,0.88173,,
8.85002,1.88822,0.87987,,
8.91002,1.90577,0.8806,,
8.97002,1.90736,0.86652,,
9.03002,1.88629,0.86807,,
9.09001,1.85066,0.8907,,
9.15001,1.8645,0.90991,,
9.21001,1.87655,0.93078,,
9.27001,1.91433,0.94434,,
9.33001,1.95519,0.95969,,
9.39001,1.9477,0.96508,,
9.45001,1.92937,0.95865,,
9.51001,1.90601,0.93524,,
9.57001,1.90578,0.91549,,
9.63001,1.93361,0.90953,,
9.69001,1.96297,0.91805,,
9.75001,2.00981,0.93313,,
9.81001,2.07193,0.93698,,
9.87001,2.13281,0.93215,,
9.93001,2.17938,0.93574,,
9.99001,2.18738,0.94881,,
10.05001,2.17408,0.95214,,
10.11001,2.15023,0.94832,,
10.17,2.13776,0.94372,,
10.23,2.12709,0.94781,,
10.29,2.12317,0.94986,,
10.35,2.1139,0.94837,,
10.41,2.10555,0.95168,,
10.47,2.09155,0.95466,,
10.53,2.08158,0.95007,,
10.59,2.07557,0.94538,,
10.65,2.04021,0.9466,,
10.71,1.99041,0.95943,,
10.77,1.95698,0.95861,,
10.83,1.92219,0.96362,,
10.89,1.89348,0.9811,,
10.95,1.9134,1.01574,,
11.01,1.95308,1.04416,,
11.07,1.99123,1.0525,,
11.13,1.97272,1.05941,,
11.19,1.94181,1.05982,,
11.25,1.94045,1.05587,,
11.30999,1.94929,1.04332,,
11.36999,1.97066,1.02366,,
11.42999,2.00742,1.01632,,
11.48999,2.03617,1.00519,,
11.54999,2.04601,0.99935,,
11.60999,2.06896,1.0004,,
11.66999,2.09776,1.00865,,
11.72999,2.12711,1.01687,,
11.78999,2.15692,1.02622,,
11.84999,2.14105,1.03201,,
11.90999,2.10996,1.03322,,
11.96999,2.11338,1.04066,,
12.02999,2.13413,1.03811,,
12.08999,2.16495,1.03907,,
12.14999,2.14679,1.04818,,
12.20999,2.09567,1.04692,,
12.26999,2.0767,1.05427,,
12.32999,2.077,1.05994,,
12.38999,2.07223,1.06168,,
12.44998,2.04993,1.06117,,
12.50998,2.01112,1.05378,,
12.56998,1.9818,1.04996,,
12.62998,1.98654,1.03381,,
12.68998,2.00429,1.00748,,
12.74998,2.00286,0.99802,,
12.80998,1.99932,0.98785,,
12.86998,1.99086,0.98054,,
12.92998,1.98002,0.97777,,
12.98998,1.97147,0.97426,,
13.04998,1.99436,0.9643,,
13.10998,2.02264,0.96712,,
13.16998,2.01617,0.97986,,
13.22998,2.00412,0.99585,,
13.28998,1.97186,1.01868,,
13.34998,1.91119,1.03525,,
13.40998,1.8809,1.04159,,
13.46998,1.91477,1.04618,,
13.52997,1.96215,1.04874,,
13.58997,1.98675,1.04746,,
13.64997,1.99844,1.03819,,
13.70997,2.01477,1.03176,,
13.76997,2.01276,1.02381,,
13.82997,2.00593,1.01316,,
13.88997,2.00115,1.00459,,
13.94997,2.00087,1.00621,,
14.00997,1.9931,1.01892,,
14.06997,1.99396,1.0292,,
14.12997,1.97022,1.02002,,
14.18997,1.93848,1.00804,,
14.24997,1.92004,0.99495,,
14.30997,1.91644,0.98147,,
14.36997,1.92983,0.97418,,
14.42997,1.94556,0.97517,,
14.48997,1.96734,0.97906,,
14.54997,1.97457,0.99166,,
14.60997,1.97495,1.00203,,
14.66996,1.96666,1.00456,,
14.72996,1.92879,1.00287,,
14.78996,1.87478,,,
14.84996,1.85476,,,
14.87996,1.85941,,,