File: XRD/Figure2_DRdata.dat
r	D(r)_75C	D(r)_25C
0.01	-0.15902	-0.32492
0.08	-0.34163	-1.79814
0.15	2.50308	-0.66066
0.22	6.96222	1.99763
0.29	9.21598	3.34594
0.36	7.29946	2.28137
0.43	2.97631	0.40434
0.5	-0.56762	-0.271
0.57	-1.92973	0.36701
0.64	-1.94977	0.87972
0.71	-1.78818	0.41584
0.78	-1.6127	-0.28063
0.85	-1.17125	-0.1859
0.92	-0.70478	0.38042
0.99	-0.70086	0.21772
1.06	-1.11453	-0.94057
1.13	-1.36115	-1.9506
1.2	-0.94896	-1.58313
1.27	0.26933	0.43309
1.34	2.28075	3.52884
1.41	4.75445	6.4527
1.48	6.6477	7.42301
1.55	6.62343	5.41373
1.62	4.33303	1.59187
1.69	1.03349	-1.54829
1.76	-1.46505	-2.72966
1.83	-2.37613	-2.68986
1.9	-2.25484	-2.49773
1.97	-2.01621	-2.33377
2.04	-2.07642	-2.15795
2.11	-2.33965	-2.26624
2.18	-2.46544	-2.53467
2.25	-1.97308	-2.00604
2.32	-0.51603	0.03334
2.39	1.59363	2.91807
2.46	3.31124	4.95669
2.53	3.62768	4.8391
2.6	2.4458	2.72253
2.67	0.61743	0.11877
2.74	-0.80797	-1.39551
2.81	-1.30856	-1.51965
2.88	-1.05564	-1.17891
2.95	-0.60145	-1.22138
3.02	-0.41696	-1.60248
3.09	-0.60234	-1.88487
3.16	-0.97044	-1.95501
3.23	-1.3543	-1.97531
3.3	-1.72864	-2.02433
3.37	-2.03386	-2.03825
3.44	-2.07148	-1.89576
3.51	-1.70875	-1.47794
3.58	-1.08002	-0.81799
3.65	-0.45004	-0.15621
3.72	0.04607	0.30443
3.79	0.40461	0.5648
3.86	0.59099	0.62931
3.93	0.55544	0.3926
4	0.38022	-0.09064
4.07	0.23801	-0.48926
4.14	0.18475	-0.5558
4.21	0.12603	-0.38267
4.28	0.00449	-0.16455
4.35	-0.11466	0.03692
4.42	-0.17968	0.1725
4.49	-0.23673	0.13702
4.56	-0.30185	-0.0166
4.63	-0.25608	-0.02499
4.7	0.02068	0.2668
4.77	0.45693	0.69194
4.84	0.82559	0.97067
4.91	0.96411	0.99755
4.98	0.89592	0.8467
5.05	0.74341	0.62126
5.12	0.58789	0.39201
5.19	0.43391	0.21061
5.26	0.26309	0.09508
5.33	0.08192	0.0131
5.4	-0.07797	-0.07927
5.47	-0.18542	-0.18311
5.54	-0.23061	-0.25705
5.61	-0.22733	-0.26562
5.68	-0.19776	-0.20905
5.75	-0.15331	-0.11097
5.82	-0.0903	-0.00324
5.89	-0.00626	0.07677
5.96	0.08206	0.10514
6.03	0.14568	0.09438
6.1	0.17201	0.07212
6.17	0.17726	0.04253
6.24	0.18286	-5.07882E-4
6.31	0.18924	-0.03764
6.38	0.1855	-0.04152
6.45	0.17474	-0.01357
6.52	0.16881	0.03103
6.59	0.16022	0.08366
6.66	0.12164	0.11381
6.73	0.03902	0.07035
6.8	-0.06922	-0.04311
6.87	-0.168	-0.14624
6.94	-0.22625	-0.18159
7.01	-0.22523	-0.18086
7.08	-0.16976	-0.1898
7.15	-0.09639	-0.19369
7.22	-0.04794	-0.16826
7.29	-0.03027	-0.14094
7.36	-0.01271	-0.14557
7.43	0.021	-0.16637
7.5	0.04472	-0.17457
7.57	0.02707	-0.1772
7.64	-0.02309	-0.19048
7.71	-0.06875	-0.20361
7.78	-0.09055	-0.20119
7.85	-0.09948	-0.18831
7.92	-0.1089	-0.1713
7.99	-0.11425	-0.14551
8.06	-0.10444	-0.11762
8.13	-0.0807	-0.10639
8.2	-0.05613	-0.10789
8.27	-0.03957	-0.0951
8.34	-0.02539	-0.06432
8.41	-0.00179	-0.04528
8.48	0.03202	-0.04958
8.55	0.06274	-0.04702
8.62	0.08013	-0.01551
8.69	0.08989	0.0201
8.76	0.10189	0.02805
8.83	0.1116	0.01978
8.9	0.10487	0.02652
8.97	0.07873	0.04611
9.04	0.0458	0.05023
9.11	0.01794	0.03404
9.18	-0.00339	0.02247
9.25	-0.01934	0.02716
9.32	-0.02681	0.02964
9.39	-0.02342	0.01507
9.46	-0.01305	-0.0035
9.53	-0.00303	-0.00774
9.6	0.00161	-0.00144
9.67	0.00201	-8.58606E-6
9.74	0.00599	-0.00594
9.81	0.02007	-0.00995
9.88	0.03696	-0.00791
9.95	0.0389	-0.00354
10.02	0.02017
10.09	-0.00262
10.16	-0.01258
10.23	-0.0151
10.3	-0.02401
10.37	-0.03488
10.44	-0.03249
10.51	-0.02045
10.58	-0.01956
10.65	-0.03378
10.72	-0.04148
10.79	-0.02922
10.86	-0.01335
10.93	-0.01364
11	-0.0229
11.07	-0.02227
11.14	-0.01456
11.21	-0.0192
11.28	-0.03796
11.35	-0.04999
11.42	-0.04526
11.49	-0.04081
11.56	-0.05224
11.63	-0.06702
11.7	-0.06394
11.77	-0.04695
11.84	-0.03809
11.91	-0.04201
11.98	-0.04087
12.05	-0.02565
12.12	-0.00989
12.19	-0.00503
12.26	-0.00336
12.33	0.00307
12.4	0.00623
12.47	1.58809E-6
12.54	-0.00301
12.61	0.00832
12.68	0.0212
12.75	0.01847
12.82	0.00875
12.89	0.01251
12.96	0.02635
13.03	0.0287
13.1	0.01815
13.17	0.01724
13.24	0.03432
13.31	0.0489
13.38	0.04419
13.45	0.0312
13.52	0.028
13.59	0.03364
13.66	0.03696
13.73	0.03643
13.8	0.03634
13.87	0.03378
13.94	0.0245
14.01	0.01499
14.08	0.01532
14.15	0.02315
14.22	0.02661
14.29	0.02212
14.36	0.01895
14.43	0.02409
14.5	0.03116
14.57	0.02989
14.64	0.02141
14.71	0.01619
14.78	0.01773
14.85	0.01797
14.92	0.01258
14.99	0.00975
15.06	0.01448
15.13	0.01479
15.2	-1.77149E-4
15.27	-0.01601
15.34	-0.00933
15.41	0.01367
15.48	0.02071
15.55	5.39583E-4
15.62	-0.01996
15.69	-0.01688
15.76	-0.00229
15.83	7.9902E-4
15.9	-0.00621
15.97	-0.00859
16.04	-0.00698
16.11	-0.01096
16.18	-0.01678
16.25	-0.01496
16.32	-0.01106
16.39	-0.0168
16.46	-0.02694
16.53	-0.02624
16.6	-0.01467
16.67	-0.00679
16.74	-0.00938
16.81	-0.01657
16.88	-0.02331
16.95	-0.02755
17.02	-0.02365
17.09	-0.01006
17.16	4.63271E-4
17.23	-0.00502
17.3	-0.01866
17.37	-0.0214
17.44	-0.01141
17.51	-0.00583
17.58	-0.01375
17.65	-0.02369
17.72	-0.02223
17.79	-0.01213
17.86	-0.00571
17.93	-0.00791
18	-0.01197
18.07	-0.00974
18.14	-0.00284
18.21	-0.00117
18.28	-0.00858
18.35	-0.01432
18.42	-0.00718
18.49	0.00504
18.56	0.00375
18.63	-0.01139
18.7	-0.0184
18.77	-0.00478
18.84	0.01252
18.91	0.01117
18.98	-0.00519
19.05	-0.01441
19.12	-0.00712
19.19	0.00478
19.26	0.00802
19.33	0.00355
19.4	8.46374E-4
19.47	0.00463
19.54	0.01019
19.61	0.00987
19.68	0.00328
19.75	-0.00102
19.82	0.00304
19.89	0.00949
19.96	0.0087
19.99	0.00607