File: XRD/Figure4_OOrunningCoord.csv
r,O1-O1_75C,O1-O1_25C
0,0,0
0.03,0,0
0.09,0,0
0.15,0,0
0.21,0,0
0.27,0,0
0.33,0,0
0.39,0,0
0.45,0,0
0.51,0,0
0.57,0,0
0.63,0,0
0.69,0,0
0.75,0,0
0.81,0,0
0.87,0,0
0.93,0,0
0.99,0,0
1.05,0,0
1.11,0,0
1.17,0,0
1.23,0,0
1.29,0,0
1.35,0,0
1.41,0,0
1.47,0,0
1.53,0,0
1.59,0,0
1.65,0,0
1.71,0,0
1.77,0,0
1.83,0,0
1.89,0,0
1.95,0,0
2.01,0,0
2.07,0,0
2.13,0,0
2.19,0,0
2.25,0,0
2.31,0,0
2.37,6.98E-05,0
2.43,4.74E-04,4.83E-07
2.49,0.00105,8.29E-06
2.55,0.00136,2.60E-04
2.61,0.00175,0.00168
2.67,0.00274,0.00486
2.73,0.00524,0.0121
2.79,0.01214,0.0251
2.85,0.02541,0.04163
2.91,0.04487,0.06029
2.97,0.06866,0.08086
3.03,0.09226,0.10178
3.09,0.11499,0.12161
3.15,0.137,0.1415
3.21,0.15853,0.16516
3.27,0.17989,0.19399
3.33,0.19969,0.22425
3.39,0.21808,0.25275
3.45,0.23647,0.27959
3.51,0.25493,0.30532
3.57,0.27168,0.33014
3.63,0.28666,0.35447
3.69,0.30152,0.37905
3.75,0.31806,0.40354
3.81,0.3371,0.42691
3.87,0.3591,0.4484
3.93,0.38278,0.46872
3.99,0.40823,0.48883
4.05,0.43589,0.5086
4.11,0.46732,0.52899
4.17,0.50357,0.55072
4.23,0.54153,0.57385
4.29,0.57882,0.59879
4.35,0.61406,0.62583
4.41,0.64381,0.65469
4.47,0.67066,0.684
4.53,0.69458,0.71455
4.59,0.71543,0.74779
4.65,0.73588,0.78398
4.71,0.75675,0.82235
4.77,0.77894,0.86306
4.83,0.80306,0.90486
4.89,0.82823,0.94555
4.95,0.85591,0.98548
5.01,0.88669,1.02676
5.07,0.92274,1.069
5.13001,0.96417,1.11199
5.19001,1.01106,1.15619
5.25001,1.06161,1.20244
5.31001,1.11353,1.24968
5.37001,1.16049,1.29674
5.43001,1.20073,1.34537
5.49001,1.23639,1.3973
5.55001,1.27133,1.45298
5.61001,1.31026,1.51397
5.67001,1.35361,1.57925
5.73001,1.401,1.64681
5.79001,1.45347,1.71384
5.85001,1.5137,1.77935
5.91001,1.58291,1.84535
5.97001,1.65957,1.91282
6.03001,1.74343,1.98398
6.09001,1.83396,2.06244
6.15001,1.92829,2.14801
6.21001,2.02601,2.23856
6.27001,2.12695,2.33192
6.33001,2.23042,2.42799
6.39001,2.33273,2.52307
6.45001,2.4354,2.61589
6.51002,2.54211,2.70932
6.57002,2.65355,2.80829
6.63002,2.76682,2.914
6.69002,2.87991,3.02657
6.75002,2.9979,3.14343
6.81002,3.12067,3.26169
6.87002,3.24566,3.3794
6.93002,3.37312,3.50037
6.99002,3.50413,3.62907
7.05002,3.64616,3.7656
7.11002,3.7976,3.9086
7.17002,3.94743,4.05864
7.23002,4.09229,4.21753
7.29002,4.23436,4.38459
7.35002,4.37803,4.55792
7.41002,4.52624,4.7365
7.47002,4.67711,4.91888
7.53002,4.8268,5.1021
7.59002,4.97493,5.28461
7.65002,5.12363,5.46795
7.71002,5.2746,5.65429
7.77002,5.43566,5.84297
7.83002,5.60965,6.03352
7.89002,5.79152,6.22625
7.95003,5.96878,6.42079
8.01002,6.14068,6.61313
8.07002,6.3109,6.80147
8.13002,6.4798,6.99086
8.19002,6.65124,7.18408
8.25002,6.82694,7.37612
8.31002,7.00874,7.56302
8.37002,7.20216,7.74419
8.43002,7.40962,7.924
8.49002,7.62374,8.10398
8.55002,7.83133,8.28409
8.61002,8.0305,8.46567
8.67002,8.23138,8.65315
8.73002,8.42745,8.84693
8.79002,8.61879,9.04406
8.85002,8.81384,9.24309
8.91002,9.01562,9.44503
8.97002,9.22155,9.64734
9.03002,9.42689,9.85136
9.09001,9.62685,10.06241
9.15001,9.82979,10.28136
9.21001,10.03855,10.50829
9.27001,10.25759,10.74161
9.33001,10.49032,10.98165
9.39001,10.72669,11.22723
9.45001,10.96171,11.47516
9.51001,11.19409,11.72104
9.57001,11.42684,11.96425
9.63001,11.66895,12.20792
9.69001,11.92205,12.45633
9.75001,12.18922,12.71179
9.81001,12.47508,12.9718
9.87001,12.78272,13.2342
9.93001,13.10797,13.50016
9.99001,13.44186,13.77268
10.05001,13.77787,14.05046
10.11001,14.11137,14.3305
10.17,14.44376,14.61302
10.23,14.7772,14.89878
10.29,15.11301,15.18908
10.35,15.45046,15.48248
10.41,15.78889,15.77981
10.47,16.1278,16.08183
10.53,16.46665,16.38698
10.59,16.80745,16.69317
10.65,17.1435,17.00327
10.71,17.46791,17.31954
10.77,17.78322,17.64061
10.83,18.09124,17.96628
10.89,18.39184,18.30046
10.95,18.69832,18.6495
11.01,19.0205,19.01312
11.07,19.36062,19.38548
11.13,19.70306,19.7639
11.19,20.03761,20.14702
11.25,20.37268,20.53351
11.30999,20.7142,20.92018
11.36999,21.06567,21.30476
11.42999,21.43339,21.68932
11.48999,21.81702,22.07411
11.54999,22.20965,22.45975
11.60999,22.61353,22.84853
11.66999,23.03284,23.24464
11.72999,23.46674,23.64801
11.78999,23.91754,24.05886
11.84999,24.37279,24.47765
11.90999,24.81904,24.90082
11.96999,25.26864,25.33104
12.02999,25.72889,25.76558
12.08999,26.2066,26.20401
12.14999,26.68751,26.65041
12.20999,27.15352,27.10143
12.26999,27.61167,27.55918
12.32999,28.07309,28.0248
12.38999,28.53798,28.49546
12.44998,29.00019,28.97167
12.50998,29.45091,29.44884
12.56998,29.89079,29.92868
12.62998,30.33311,30.40722
12.68998,30.78802,30.87896
12.74998,31.24828,31.34847
12.80998,31.71114,31.81811
12.86998,32.17548,32.28791
12.92998,32.63922,32.76067
12.98998,33.1027,33.23673
13.04998,33.57665,33.7121
13.10998,34.07004,34.19111
13.16998,34.56951,34.68043
13.22998,35.06698,35.18205
13.28998,35.55626,35.69882
13.34998,36.02258,36.23041
13.40998,36.47128,36.77091
13.46998,36.93415,37.31908
13.52997,37.4253,37.87379
13.58997,37.93749,38.43307
13.64997,38.4613,38.99355
13.70997,38.99771,39.55486
13.76997,39.54046,40.11719
13.82997,40.08472,40.67863
13.88997,40.63025,41.24005
13.94997,41.18072,41.80546
14.00997,41.73233,42.38156
14.06997,42.28809,42.96968
14.12997,42.83943,43.56007
14.18997,43.37722,44.14826
14.24997,43.90622,44.73481
14.30997,44.43566,45.31783
14.36997,44.97567,45.89967
14.42997,45.52899,46.4867
14.48997,46.09873,47.07998
14.54997,46.68072,47.68453
14.60997,47.26799,48.30158
14.66996,47.85756,48.92701
14.72996,48.43345,49.55657
14.78996,48.98175,
14.84996,49.51533,
14.87996,49.7844,