File: FTIR/Mary/Mechano/CoCrystal/2025_07_09_MC_CoCrystal_CBD_LPro_Scan2.csv
Created as New Dataset,Sample 805 By YargerLab Date Wednesday, July 09 2025
cm-1,A
4000.00,0.0018
3987.00,0.0018
3974.00,0.0018
3961.00,0.0020
3948.00,0.0019
3935.00,0.0018
3922.00,0.0018
3909.00,0.0017
3896.00,0.0016
3883.00,0.0016
3870.00,0.0015
3857.00,0.0015
3844.00,0.0015
3831.00,0.0014
3818.00,0.0012
3805.00,0.0012
3792.00,0.0013
3779.00,0.0013
3766.00,0.0012
3753.00,0.0011
3740.00,0.0011
3727.00,0.0010
3714.00,0.0010
3701.00,0.0010
3688.00,0.0010
3675.00,0.0010
3662.00,0.0012
3649.00,0.0011
3636.00,0.0014
3623.00,0.0018
3610.00,0.0022
3597.00,0.0024
3584.00,0.0030
3571.00,0.0040
3558.00,0.0054
3545.00,0.0077
3532.00,0.0134
3519.00,0.0238
3506.00,0.0188
3493.00,0.0225
3480.00,0.0306
3467.00,0.0467
3454.00,0.0975
3441.00,0.0788
3428.00,0.0540
3415.00,0.0513
3402.00,0.0457
3389.00,0.0360
3376.00,0.0313
3363.00,0.0284
3350.00,0.0264
3337.00,0.0248
3324.00,0.0239
3311.00,0.0236
3298.00,0.0238
3285.00,0.0248
3272.00,0.0255
3259.00,0.0274
3246.00,0.0284
3233.00,0.0299
3220.00,0.0315
3207.00,0.0332
3194.00,0.0345
3181.00,0.0353
3168.00,0.0358
3155.00,0.0356
3142.00,0.0374
3129.00,0.0387
3116.00,0.0395
3103.00,0.0415
3090.00,0.0420
3077.00,0.0470
3064.00,0.0452
3051.00,0.0376
3038.00,0.0369
3025.00,0.0351
3012.00,0.0334
2999.00,0.0360
2986.00,0.0438
2973.00,0.0598
2960.00,0.0837
2947.00,0.0827
2934.00,0.1215
2921.00,0.1578
2908.00,0.1045
2895.00,0.0740
2882.00,0.0661
2869.00,0.0780
2856.00,0.0971
2843.00,0.0566
2830.00,0.0527
2817.00,0.0306
2804.00,0.0261
2791.00,0.0242
2778.00,0.0239
2765.00,0.0249
2752.00,0.0256
2739.00,0.0265
2726.00,0.0279
2713.00,0.0271
2700.00,0.0274
2687.00,0.0278
2674.00,0.0278
2661.00,0.0283
2648.00,0.0272
2635.00,0.0264
2622.00,0.0259
2609.00,0.0253
2596.00,0.0243
2583.00,0.0233
2570.00,0.0231
2557.00,0.0240
2544.00,0.0232
2531.00,0.0220
2518.00,0.0212
2505.00,0.0198
2492.00,0.0192
2479.00,0.0192
2466.00,0.0189
2453.00,0.0195
2440.00,0.0194
2427.00,0.0189
2414.00,0.0181
2401.00,0.0163
2388.00,0.0147
2375.00,0.0133
2362.00,0.0121
2349.00,0.0110
2336.00,0.0102
2323.00,0.0100
2310.00,0.0084
2297.00,0.0079
2284.00,0.0076
2271.00,0.0066
2258.00,0.0066
2245.00,0.0058
2232.00,0.0054
2219.00,0.0051
2206.00,0.0045
2193.00,0.0041
2180.00,0.0038
2167.00,0.0047
2154.00,0.0010
2141.00,0.0017
2128.00,0.0016
2115.00,0.0023
2102.00,0.0020
2089.00,0.0021
2076.00,0.0018
2063.00,0.0009
2050.00,0.0018
2037.00,0.0013
2024.00,0.0010
2011.00,0.0008
1998.00,0.0009
1985.00,0.0022
1972.00,0.0008
1959.00,0.0009
1946.00,0.0015
1933.00,0.0016
1920.00,0.0022
1907.00,0.0019
1894.00,0.0018
1881.00,0.0021
1868.00,0.0024
1855.00,0.0024
1842.00,0.0028
1829.00,0.0028
1816.00,0.0028
1803.00,0.0039
1790.00,0.0049
1777.00,0.0057
1764.00,0.0052
1751.00,0.0054
1738.00,0.0053
1725.00,0.0065
1712.00,0.0075
1699.00,0.0087
1686.00,0.0098
1673.00,0.0140
1660.00,0.0259
1647.00,0.0731
1634.00,0.1988
1621.00,0.1240
1608.00,0.0579
1595.00,0.0819
1582.00,0.2323
1569.00,0.1991
1556.00,0.1065
1543.00,0.0602
1530.00,0.0545
1517.00,0.0563
1504.00,0.0356
1491.00,0.0285
1478.00,0.0357
1465.00,0.0753
1452.00,0.1720
1439.00,0.2482
1426.00,0.1167
1413.00,0.0804
1400.00,0.0870
1387.00,0.0712
1374.00,0.1153
1361.00,0.0928
1348.00,0.1247
1335.00,0.1132
1322.00,0.1408
1309.00,0.1139
1296.00,0.1056
1283.00,0.1517
1270.00,0.0878
1257.00,0.0603
1244.00,0.1286
1231.00,0.0997
1218.00,0.1332
1205.00,0.1552
1192.00,0.0619
1179.00,0.0756
1166.00,0.0910
1153.00,0.0747
1140.00,0.0385
1127.00,0.0244
1114.00,0.0220
1101.00,0.0439
1088.00,0.0297
1075.00,0.0301
1062.00,0.0422
1049.00,0.1000
1036.00,0.1322
1023.00,0.1272
1010.00,0.0718
997.00,0.0646
984.00,0.0503
971.00,0.0363
958.00,0.0606
945.00,0.0412
932.00,0.0359
919.00,0.0553
906.00,0.0618
893.00,0.1174
880.00,0.1172
867.00,0.0923
854.00,0.1468
841.00,0.1269
828.00,0.1125
815.00,0.0572
802.00,0.0995
789.00,0.0706
776.00,0.0579
763.00,0.0573
750.00,0.0542
737.00,0.0602
724.00,0.0547
711.00,0.0507
698.00,0.0490
685.00,0.0611
672.00,0.0741
659.00,0.0562
646.00,0.0570
633.00,0.0591
620.00,0.0521
607.00,0.0629
594.00,0.0671
581.00,0.0838
568.00,0.0537
555.00,0.0845
542.00,0.0841
529.00,0.0962
516.00,0.0715
503.00,0.0867
490.00,0.1683
477.00,0.1748
464.00,0.1658
451.00,0.1324
438.00,0.1172
425.00,0.0998
412.00,0.0892
400.00,0.0937