File: FTIR/Mary/Mechano/CoCrystal/2025_07_09_CBD_MC_Pre_Scan1.csv
Created as New Dataset,Sample 798 By YargerLab Date Wednesday, July 09 2025
cm-1,A
4000.00,0.0054
3987.00,0.0055
3974.00,0.0055
3961.00,0.0055
3948.00,0.0056
3935.00,0.0056
3922.00,0.0056
3909.00,0.0055
3896.00,0.0054
3883.00,0.0054
3870.00,0.0054
3857.00,0.0053
3844.00,0.0054
3831.00,0.0053
3818.00,0.0052
3805.00,0.0052
3792.00,0.0053
3779.00,0.0052
3766.00,0.0052
3753.00,0.0051
3740.00,0.0050
3727.00,0.0050
3714.00,0.0051
3701.00,0.0051
3688.00,0.0049
3675.00,0.0048
3662.00,0.0050
3649.00,0.0047
3636.00,0.0048
3623.00,0.0048
3610.00,0.0050
3597.00,0.0051
3584.00,0.0052
3571.00,0.0056
3558.00,0.0064
3545.00,0.0083
3532.00,0.0157
3519.00,0.0362
3506.00,0.0217
3493.00,0.0180
3480.00,0.0202
3467.00,0.0250
3454.00,0.0312
3441.00,0.0372
3428.00,0.0427
3415.00,0.0508
3402.00,0.0519
3389.00,0.0348
3376.00,0.0247
3363.00,0.0192
3350.00,0.0157
3337.00,0.0134
3324.00,0.0119
3311.00,0.0107
3298.00,0.0098
3285.00,0.0091
3272.00,0.0085
3259.00,0.0084
3246.00,0.0081
3233.00,0.0077
3220.00,0.0075
3207.00,0.0074
3194.00,0.0073
3181.00,0.0073
3168.00,0.0074
3155.00,0.0072
3142.00,0.0071
3129.00,0.0070
3116.00,0.0069
3103.00,0.0069
3090.00,0.0072
3077.00,0.0127
3064.00,0.0083
3051.00,0.0076
3038.00,0.0087
3025.00,0.0085
3012.00,0.0085
2999.00,0.0098
2986.00,0.0127
2973.00,0.0239
2960.00,0.0331
2947.00,0.0291
2934.00,0.0482
2921.00,0.0605
2908.00,0.0468
2895.00,0.0323
2882.00,0.0274
2869.00,0.0304
2856.00,0.0469
2843.00,0.0215
2830.00,0.0266
2817.00,0.0132
2804.00,0.0106
2791.00,0.0094
2778.00,0.0087
2765.00,0.0082
2752.00,0.0080
2739.00,0.0083
2726.00,0.0091
2713.00,0.0079
2700.00,0.0075
2687.00,0.0076
2674.00,0.0079
2661.00,0.0083
2648.00,0.0081
2635.00,0.0079
2622.00,0.0079
2609.00,0.0078
2596.00,0.0076
2583.00,0.0074
2570.00,0.0074
2557.00,0.0073
2544.00,0.0072
2531.00,0.0071
2518.00,0.0071
2505.00,0.0070
2492.00,0.0070
2479.00,0.0071
2466.00,0.0071
2453.00,0.0073
2440.00,0.0068
2427.00,0.0065
2414.00,0.0063
2401.00,0.0061
2388.00,0.0060
2375.00,0.0057
2362.00,0.0056
2349.00,0.0057
2336.00,0.0060
2323.00,0.0071
2310.00,0.0062
2297.00,0.0065
2284.00,0.0071
2271.00,0.0065
2258.00,0.0064
2245.00,0.0063
2232.00,0.0064
2219.00,0.0061
2206.00,0.0061
2193.00,0.0059
2180.00,0.0058
2167.00,0.0070
2154.00,0.0031
2141.00,0.0041
2128.00,0.0043
2115.00,0.0055
2102.00,0.0052
2089.00,0.0052
2076.00,0.0056
2063.00,0.0049
2050.00,0.0062
2037.00,0.0049
2024.00,0.0041
2011.00,0.0043
1998.00,0.0042
1985.00,0.0060
1972.00,0.0042
1959.00,0.0038
1946.00,0.0043
1933.00,0.0045
1920.00,0.0047
1907.00,0.0050
1894.00,0.0051
1881.00,0.0051
1868.00,0.0051
1855.00,0.0051
1842.00,0.0052
1829.00,0.0054
1816.00,0.0054
1803.00,0.0063
1790.00,0.0059
1777.00,0.0062
1764.00,0.0062
1751.00,0.0060
1738.00,0.0062
1725.00,0.0065
1712.00,0.0070
1699.00,0.0076
1686.00,0.0082
1673.00,0.0093
1660.00,0.0120
1647.00,0.0239
1634.00,0.0436
1621.00,0.0607
1608.00,0.0202
1595.00,0.0230
1582.00,0.0780
1569.00,0.0285
1556.00,0.0138
1543.00,0.0109
1530.00,0.0110
1517.00,0.0209
1504.00,0.0152
1491.00,0.0112
1478.00,0.0112
1465.00,0.0302
1452.00,0.0523
1439.00,0.0902
1426.00,0.0417
1413.00,0.0166
1400.00,0.0138
1387.00,0.0140
1374.00,0.0429
1361.00,0.0216
1348.00,0.0216
1335.00,0.0216
1322.00,0.0289
1309.00,0.0410
1296.00,0.0399
1283.00,0.0394
1270.00,0.0298
1257.00,0.0160
1244.00,0.0252
1231.00,0.0454
1218.00,0.0960
1205.00,0.0696
1192.00,0.0312
1179.00,0.0395
1166.00,0.0275
1153.00,0.0365
1140.00,0.0187
1127.00,0.0151
1114.00,0.0145
1101.00,0.0233
1088.00,0.0165
1075.00,0.0209
1062.00,0.0180
1049.00,0.0499
1036.00,0.0437
1023.00,0.0556
1010.00,0.0446
997.00,0.0391
984.00,0.0324
971.00,0.0240
958.00,0.0318
945.00,0.0168
932.00,0.0166
919.00,0.0184
906.00,0.0268
893.00,0.0618
880.00,0.0654
867.00,0.0398
854.00,0.0536
841.00,0.0442
828.00,0.0556
815.00,0.0265
802.00,0.0421
789.00,0.0231
776.00,0.0203
763.00,0.0167
750.00,0.0253
737.00,0.0172
724.00,0.0192
711.00,0.0155
698.00,0.0135
685.00,0.0138
672.00,0.0193
659.00,0.0256
646.00,0.0262
633.00,0.0213
620.00,0.0235
607.00,0.0277
594.00,0.0339
581.00,0.0371
568.00,0.0362
555.00,0.0370
542.00,0.0489
529.00,0.0554
516.00,0.0504
503.00,0.0632
490.00,0.0783
477.00,0.0667
464.00,0.0743
451.00,0.0693
438.00,0.0579
425.00,0.0736
412.00,0.0736
400.00,0.0899