File: FTIR/Mary/Mechano/CoCrystal/2025_07_09_MC_CoCrystal_CBD_LPro_Scan1.csv
Created as New Dataset,Sample 804 By YargerLab Date Wednesday, July 09 2025
cm-1,A
4000.00,0.0020
3987.00,0.0020
3974.00,0.0020
3961.00,0.0021
3948.00,0.0020
3935.00,0.0019
3922.00,0.0019
3909.00,0.0018
3896.00,0.0017
3883.00,0.0017
3870.00,0.0016
3857.00,0.0016
3844.00,0.0016
3831.00,0.0015
3818.00,0.0013
3805.00,0.0014
3792.00,0.0015
3779.00,0.0015
3766.00,0.0014
3753.00,0.0013
3740.00,0.0012
3727.00,0.0012
3714.00,0.0012
3701.00,0.0012
3688.00,0.0012
3675.00,0.0012
3662.00,0.0014
3649.00,0.0013
3636.00,0.0016
3623.00,0.0020
3610.00,0.0023
3597.00,0.0028
3584.00,0.0032
3571.00,0.0043
3558.00,0.0057
3545.00,0.0077
3532.00,0.0118
3519.00,0.0187
3506.00,0.0174
3493.00,0.0217
3480.00,0.0296
3467.00,0.0449
3454.00,0.0942
3441.00,0.0753
3428.00,0.0498
3415.00,0.0456
3402.00,0.0413
3389.00,0.0348
3376.00,0.0314
3363.00,0.0290
3350.00,0.0272
3337.00,0.0256
3324.00,0.0247
3311.00,0.0243
3298.00,0.0243
3285.00,0.0251
3272.00,0.0258
3259.00,0.0276
3246.00,0.0285
3233.00,0.0298
3220.00,0.0313
3207.00,0.0330
3194.00,0.0342
3181.00,0.0349
3168.00,0.0353
3155.00,0.0352
3142.00,0.0369
3129.00,0.0383
3116.00,0.0391
3103.00,0.0409
3090.00,0.0414
3077.00,0.0457
3064.00,0.0444
3051.00,0.0370
3038.00,0.0363
3025.00,0.0344
3012.00,0.0328
2999.00,0.0353
2986.00,0.0426
2973.00,0.0573
2960.00,0.0807
2947.00,0.0806
2934.00,0.1175
2921.00,0.1510
2908.00,0.0998
2895.00,0.0712
2882.00,0.0637
2869.00,0.0752
2856.00,0.0917
2843.00,0.0548
2830.00,0.0495
2817.00,0.0295
2804.00,0.0253
2791.00,0.0235
2778.00,0.0233
2765.00,0.0243
2752.00,0.0250
2739.00,0.0258
2726.00,0.0271
2713.00,0.0265
2700.00,0.0268
2687.00,0.0271
2674.00,0.0271
2661.00,0.0276
2648.00,0.0265
2635.00,0.0258
2622.00,0.0253
2609.00,0.0247
2596.00,0.0237
2583.00,0.0227
2570.00,0.0225
2557.00,0.0233
2544.00,0.0227
2531.00,0.0214
2518.00,0.0207
2505.00,0.0193
2492.00,0.0187
2479.00,0.0187
2466.00,0.0184
2453.00,0.0190
2440.00,0.0188
2427.00,0.0183
2414.00,0.0175
2401.00,0.0158
2388.00,0.0143
2375.00,0.0129
2362.00,0.0117
2349.00,0.0107
2336.00,0.0100
2323.00,0.0099
2310.00,0.0084
2297.00,0.0079
2284.00,0.0074
2271.00,0.0066
2258.00,0.0066
2245.00,0.0056
2232.00,0.0053
2219.00,0.0050
2206.00,0.0042
2193.00,0.0042
2180.00,0.0037
2167.00,0.0044
2154.00,0.0007
2141.00,0.0015
2128.00,0.0015
2115.00,0.0024
2102.00,0.0020
2089.00,0.0021
2076.00,0.0018
2063.00,0.0011
2050.00,0.0017
2037.00,0.0011
2024.00,0.0007
2011.00,0.0009
1998.00,0.0010
1985.00,0.0023
1972.00,0.0006
1959.00,0.0007
1946.00,0.0014
1933.00,0.0015
1920.00,0.0021
1907.00,0.0019
1894.00,0.0018
1881.00,0.0020
1868.00,0.0023
1855.00,0.0024
1842.00,0.0027
1829.00,0.0027
1816.00,0.0028
1803.00,0.0037
1790.00,0.0048
1777.00,0.0055
1764.00,0.0050
1751.00,0.0052
1738.00,0.0052
1725.00,0.0064
1712.00,0.0073
1699.00,0.0084
1686.00,0.0095
1673.00,0.0138
1660.00,0.0254
1647.00,0.0711
1634.00,0.1938
1621.00,0.1167
1608.00,0.0556
1595.00,0.0795
1582.00,0.2206
1569.00,0.1917
1556.00,0.1020
1543.00,0.0577
1530.00,0.0527
1517.00,0.0540
1504.00,0.0342
1491.00,0.0274
1478.00,0.0345
1465.00,0.0722
1452.00,0.1660
1439.00,0.2354
1426.00,0.1131
1413.00,0.0777
1400.00,0.0839
1387.00,0.0688
1374.00,0.1092
1361.00,0.0893
1348.00,0.1206
1335.00,0.1099
1322.00,0.1353
1309.00,0.1087
1296.00,0.1000
1283.00,0.1444
1270.00,0.0834
1257.00,0.0589
1244.00,0.1261
1231.00,0.0956
1218.00,0.1194
1205.00,0.1459
1192.00,0.0599
1179.00,0.0721
1166.00,0.0879
1153.00,0.0720
1140.00,0.0373
1127.00,0.0237
1114.00,0.0215
1101.00,0.0419
1088.00,0.0285
1075.00,0.0285
1062.00,0.0407
1049.00,0.0948
1036.00,0.1262
1023.00,0.1251
1010.00,0.0693
997.00,0.0616
984.00,0.0480
971.00,0.0350
958.00,0.0579
945.00,0.0393
932.00,0.0345
919.00,0.0534
906.00,0.0600
893.00,0.1114
880.00,0.1105
867.00,0.0882
854.00,0.1377
841.00,0.1199
828.00,0.1049
815.00,0.0547
802.00,0.0942
789.00,0.0669
776.00,0.0549
763.00,0.0546
750.00,0.0517
737.00,0.0577
724.00,0.0523
711.00,0.0485
698.00,0.0468
685.00,0.0588
672.00,0.0713
659.00,0.0533
646.00,0.0538
633.00,0.0568
620.00,0.0499
607.00,0.0599
594.00,0.0647
581.00,0.0803
568.00,0.0505
555.00,0.0817
542.00,0.0803
529.00,0.0917
516.00,0.0675
503.00,0.0808
490.00,0.1582
477.00,0.1658
464.00,0.1549
451.00,0.1218
438.00,0.1108
425.00,0.0938
412.00,0.0813
400.00,0.0807