File: FTIR/Mary/Mechano/CoCrystal/2025_07_09_CBD_MC_Pre_Scan3.csv
Created as New Dataset,Sample 800 By YargerLab Date Wednesday, July 09 2025
cm-1,A
4000.00,0.0056
3987.00,0.0057
3974.00,0.0058
3961.00,0.0058
3948.00,0.0059
3935.00,0.0059
3922.00,0.0059
3909.00,0.0058
3896.00,0.0057
3883.00,0.0057
3870.00,0.0057
3857.00,0.0055
3844.00,0.0056
3831.00,0.0055
3818.00,0.0055
3805.00,0.0054
3792.00,0.0054
3779.00,0.0054
3766.00,0.0054
3753.00,0.0054
3740.00,0.0051
3727.00,0.0051
3714.00,0.0052
3701.00,0.0051
3688.00,0.0051
3675.00,0.0050
3662.00,0.0050
3649.00,0.0049
3636.00,0.0050
3623.00,0.0050
3610.00,0.0052
3597.00,0.0053
3584.00,0.0056
3571.00,0.0061
3558.00,0.0072
3545.00,0.0100
3532.00,0.0205
3519.00,0.0485
3506.00,0.0276
3493.00,0.0232
3480.00,0.0265
3467.00,0.0334
3454.00,0.0423
3441.00,0.0507
3428.00,0.0584
3415.00,0.0698
3402.00,0.0702
3389.00,0.0452
3376.00,0.0313
3363.00,0.0239
3350.00,0.0192
3337.00,0.0160
3324.00,0.0139
3311.00,0.0124
3298.00,0.0112
3285.00,0.0102
3272.00,0.0093
3259.00,0.0091
3246.00,0.0087
3233.00,0.0082
3220.00,0.0080
3207.00,0.0080
3194.00,0.0077
3181.00,0.0078
3168.00,0.0078
3155.00,0.0076
3142.00,0.0075
3129.00,0.0074
3116.00,0.0074
3103.00,0.0074
3090.00,0.0079
3077.00,0.0154
3064.00,0.0094
3051.00,0.0084
3038.00,0.0100
3025.00,0.0097
3012.00,0.0097
2999.00,0.0116
2986.00,0.0155
2973.00,0.0311
2960.00,0.0445
2947.00,0.0383
2934.00,0.0657
2921.00,0.0836
2908.00,0.0633
2895.00,0.0424
2882.00,0.0355
2869.00,0.0399
2856.00,0.0635
2843.00,0.0270
2830.00,0.0344
2817.00,0.0153
2804.00,0.0119
2791.00,0.0103
2778.00,0.0093
2765.00,0.0087
2752.00,0.0085
2739.00,0.0089
2726.00,0.0100
2713.00,0.0084
2700.00,0.0079
2687.00,0.0080
2674.00,0.0084
2661.00,0.0088
2648.00,0.0085
2635.00,0.0082
2622.00,0.0082
2609.00,0.0080
2596.00,0.0079
2583.00,0.0077
2570.00,0.0077
2557.00,0.0076
2544.00,0.0074
2531.00,0.0073
2518.00,0.0073
2505.00,0.0072
2492.00,0.0072
2479.00,0.0073
2466.00,0.0074
2453.00,0.0076
2440.00,0.0071
2427.00,0.0066
2414.00,0.0064
2401.00,0.0062
2388.00,0.0061
2375.00,0.0055
2362.00,0.0055
2349.00,0.0056
2336.00,0.0059
2323.00,0.0069
2310.00,0.0059
2297.00,0.0062
2284.00,0.0069
2271.00,0.0063
2258.00,0.0063
2245.00,0.0061
2232.00,0.0060
2219.00,0.0059
2206.00,0.0059
2193.00,0.0059
2180.00,0.0056
2167.00,0.0067
2154.00,0.0028
2141.00,0.0036
2128.00,0.0041
2115.00,0.0052
2102.00,0.0050
2089.00,0.0050
2076.00,0.0051
2063.00,0.0046
2050.00,0.0056
2037.00,0.0043
2024.00,0.0037
2011.00,0.0040
1998.00,0.0038
1985.00,0.0052
1972.00,0.0040
1959.00,0.0034
1946.00,0.0039
1933.00,0.0040
1920.00,0.0043
1907.00,0.0047
1894.00,0.0048
1881.00,0.0049
1868.00,0.0049
1855.00,0.0050
1842.00,0.0050
1829.00,0.0052
1816.00,0.0052
1803.00,0.0065
1790.00,0.0060
1777.00,0.0064
1764.00,0.0063
1751.00,0.0060
1738.00,0.0062
1725.00,0.0066
1712.00,0.0071
1699.00,0.0079
1686.00,0.0081
1673.00,0.0096
1660.00,0.0136
1647.00,0.0302
1634.00,0.0582
1621.00,0.0826
1608.00,0.0251
1595.00,0.0291
1582.00,0.1068
1569.00,0.0361
1556.00,0.0160
1543.00,0.0124
1530.00,0.0126
1517.00,0.0262
1504.00,0.0183
1491.00,0.0130
1478.00,0.0130
1465.00,0.0391
1452.00,0.0704
1439.00,0.1243
1426.00,0.0533
1413.00,0.0193
1400.00,0.0158
1387.00,0.0163
1374.00,0.0562
1361.00,0.0265
1348.00,0.0269
1335.00,0.0270
1322.00,0.0371
1309.00,0.0540
1296.00,0.0522
1283.00,0.0512
1270.00,0.0378
1257.00,0.0192
1244.00,0.0324
1231.00,0.0606
1218.00,0.1342
1205.00,0.0935
1192.00,0.0390
1179.00,0.0511
1166.00,0.0339
1153.00,0.0471
1140.00,0.0216
1127.00,0.0170
1114.00,0.0163
1101.00,0.0287
1088.00,0.0193
1075.00,0.0253
1062.00,0.0216
1049.00,0.0666
1036.00,0.0576
1023.00,0.0749
1010.00,0.0582
997.00,0.0503
984.00,0.0410
971.00,0.0291
958.00,0.0400
945.00,0.0192
932.00,0.0191
919.00,0.0218
906.00,0.0337
893.00,0.0837
880.00,0.0863
867.00,0.0508
854.00,0.0697
841.00,0.0562
828.00,0.0722
815.00,0.0315
802.00,0.0534
789.00,0.0269
776.00,0.0234
763.00,0.0186
750.00,0.0302
737.00,0.0192
724.00,0.0219
711.00,0.0171
698.00,0.0145
685.00,0.0151
672.00,0.0225
659.00,0.0307
646.00,0.0312
633.00,0.0247
620.00,0.0278
607.00,0.0336
594.00,0.0417
581.00,0.0461
568.00,0.0442
555.00,0.0457
542.00,0.0611
529.00,0.0711
516.00,0.0636
503.00,0.0808
490.00,0.1028
477.00,0.0868
464.00,0.0961
451.00,0.0901
438.00,0.0745
425.00,0.0942
412.00,0.0906
400.00,0.1152