File: FTIR/Mary/Mechano/CoCrystal/2025_07_09_L_Proline_MC_Lot_131547_25G_Scan1.csv
Created as New Dataset,Sample 801 By YargerLab Date Wednesday, July 09 2025
cm-1,A
4000.00,0.0101
3987.00,0.0102
3974.00,0.0101
3961.00,0.0101
3948.00,0.0102
3935.00,0.0101
3922.00,0.0101
3909.00,0.0101
3896.00,0.0101
3883.00,0.0100
3870.00,0.0102
3857.00,0.0100
3844.00,0.0100
3831.00,0.0100
3818.00,0.0099
3805.00,0.0099
3792.00,0.0099
3779.00,0.0098
3766.00,0.0098
3753.00,0.0097
3740.00,0.0096
3727.00,0.0093
3714.00,0.0093
3701.00,0.0092
3688.00,0.0092
3675.00,0.0092
3662.00,0.0093
3649.00,0.0091
3636.00,0.0091
3623.00,0.0090
3610.00,0.0092
3597.00,0.0090
3584.00,0.0090
3571.00,0.0091
3558.00,0.0093
3545.00,0.0093
3532.00,0.0096
3519.00,0.0102
3506.00,0.0098
3493.00,0.0097
3480.00,0.0098
3467.00,0.0099
3454.00,0.0101
3441.00,0.0103
3428.00,0.0104
3415.00,0.0106
3402.00,0.0106
3389.00,0.0102
3376.00,0.0099
3363.00,0.0098
3350.00,0.0096
3337.00,0.0095
3324.00,0.0094
3311.00,0.0094
3298.00,0.0094
3285.00,0.0096
3272.00,0.0095
3259.00,0.0100
3246.00,0.0105
3233.00,0.0108
3220.00,0.0116
3207.00,0.0125
3194.00,0.0135
3181.00,0.0147
3168.00,0.0159
3155.00,0.0172
3142.00,0.0191
3129.00,0.0217
3116.00,0.0247
3103.00,0.0305
3090.00,0.0376
3077.00,0.0478
3064.00,0.0583
3051.00,0.0634
3038.00,0.0615
3025.00,0.0562
3012.00,0.0556
2999.00,0.0536
2986.00,0.0680
2973.00,0.0586
2960.00,0.0557
2947.00,0.0530
2934.00,0.0492
2921.00,0.0470
2908.00,0.0448
2895.00,0.0429
2882.00,0.0425
2869.00,0.0416
2856.00,0.0413
2843.00,0.0408
2830.00,0.0417
2817.00,0.0447
2804.00,0.0475
2791.00,0.0490
2778.00,0.0512
2765.00,0.0487
2752.00,0.0453
2739.00,0.0430
2726.00,0.0420
2713.00,0.0417
2700.00,0.0422
2687.00,0.0437
2674.00,0.0449
2661.00,0.0457
2648.00,0.0466
2635.00,0.0467
2622.00,0.0468
2609.00,0.0462
2596.00,0.0464
2583.00,0.0468
2570.00,0.0463
2557.00,0.0461
2544.00,0.0461
2531.00,0.0477
2518.00,0.0499
2505.00,0.0519
2492.00,0.0516
2479.00,0.0510
2466.00,0.0510
2453.00,0.0502
2440.00,0.0503
2427.00,0.0529
2414.00,0.0561
2401.00,0.0591
2388.00,0.0611
2375.00,0.0597
2362.00,0.0585
2349.00,0.0570
2336.00,0.0555
2323.00,0.0545
2310.00,0.0510
2297.00,0.0500
2284.00,0.0486
2271.00,0.0459
2258.00,0.0436
2245.00,0.0412
2232.00,0.0392
2219.00,0.0374
2206.00,0.0359
2193.00,0.0343
2180.00,0.0315
2167.00,0.0303
2154.00,0.0254
2141.00,0.0243
2128.00,0.0232
2115.00,0.0229
2102.00,0.0214
2089.00,0.0203
2076.00,0.0194
2063.00,0.0179
2050.00,0.0185
2037.00,0.0172
2024.00,0.0157
2011.00,0.0155
1998.00,0.0157
1985.00,0.0168
1972.00,0.0141
1959.00,0.0134
1946.00,0.0135
1933.00,0.0129
1920.00,0.0127
1907.00,0.0122
1894.00,0.0114
1881.00,0.0114
1868.00,0.0110
1855.00,0.0110
1842.00,0.0112
1829.00,0.0108
1816.00,0.0107
1803.00,0.0108
1790.00,0.0107
1777.00,0.0108
1764.00,0.0113
1751.00,0.0115
1738.00,0.0117
1725.00,0.0120
1712.00,0.0127
1699.00,0.0139
1686.00,0.0154
1673.00,0.0174
1660.00,0.0191
1647.00,0.0248
1634.00,0.0564
1621.00,0.1263
1608.00,0.1407
1595.00,0.1074
1582.00,0.1062
1569.00,0.1386
1556.00,0.1776
1543.00,0.1651
1530.00,0.1358
1517.00,0.1055
1504.00,0.0849
1491.00,0.0694
1478.00,0.0805
1465.00,0.0765
1452.00,0.1149
1439.00,0.1139
1426.00,0.0903
1413.00,0.1336
1400.00,0.1553
1387.00,0.1729
1374.00,0.2264
1361.00,0.1621
1348.00,0.1144
1335.00,0.0838
1322.00,0.0874
1309.00,0.0678
1296.00,0.1239
1283.00,0.1145
1270.00,0.0705
1257.00,0.0889
1244.00,0.0636
1231.00,0.0515
1218.00,0.0451
1205.00,0.0391
1192.00,0.0345
1179.00,0.0360
1166.00,0.0602
1153.00,0.0352
1140.00,0.0288
1127.00,0.0262
1114.00,0.0244
1101.00,0.0264
1088.00,0.0577
1075.00,0.0326
1062.00,0.0325
1049.00,0.0470
1036.00,0.0885
1023.00,0.0417
1010.00,0.0276
997.00,0.0296
984.00,0.0541
971.00,0.0279
958.00,0.0265
945.00,0.0556
932.00,0.0298
919.00,0.0498
906.00,0.0444
893.00,0.0328
880.00,0.0358
867.00,0.0428
854.00,0.0759
841.00,0.0840
828.00,0.0653
815.00,0.0430
802.00,0.0611
789.00,0.0974
776.00,0.0512
763.00,0.0327
750.00,0.0261
737.00,0.0230
724.00,0.0231
711.00,0.0305
698.00,0.0550
685.00,0.0558
672.00,0.0638
659.00,0.0692
646.00,0.1292
633.00,0.1144
620.00,0.0541
607.00,0.0328
594.00,0.0263
581.00,0.0299
568.00,0.0304
555.00,0.0227
542.00,0.0229
529.00,0.0237
516.00,0.0255
503.00,0.0266
490.00,0.0281
477.00,0.0344
464.00,0.0744
451.00,0.1992
438.00,0.0860
425.00,0.0542
412.00,0.0583
400.00,0.0802