File: FTIR/Mary/Mechano/CoCrystal/2025_07_09_CBD_MC_Pre_Scan2.csv
Created as New Dataset,Sample 799 By YargerLab Date Wednesday, July 09 2025
cm-1,A
4000.00,0.0052
3987.00,0.0052
3974.00,0.0053
3961.00,0.0054
3948.00,0.0054
3935.00,0.0054
3922.00,0.0055
3909.00,0.0053
3896.00,0.0052
3883.00,0.0052
3870.00,0.0051
3857.00,0.0050
3844.00,0.0051
3831.00,0.0050
3818.00,0.0049
3805.00,0.0049
3792.00,0.0050
3779.00,0.0049
3766.00,0.0050
3753.00,0.0049
3740.00,0.0047
3727.00,0.0046
3714.00,0.0047
3701.00,0.0046
3688.00,0.0046
3675.00,0.0046
3662.00,0.0046
3649.00,0.0045
3636.00,0.0046
3623.00,0.0046
3610.00,0.0048
3597.00,0.0049
3584.00,0.0052
3571.00,0.0058
3558.00,0.0070
3545.00,0.0098
3532.00,0.0208
3519.00,0.0499
3506.00,0.0281
3493.00,0.0236
3480.00,0.0271
3467.00,0.0343
3454.00,0.0435
3441.00,0.0522
3428.00,0.0603
3415.00,0.0721
3402.00,0.0724
3389.00,0.0463
3376.00,0.0320
3363.00,0.0243
3350.00,0.0194
3337.00,0.0161
3324.00,0.0140
3311.00,0.0124
3298.00,0.0110
3285.00,0.0101
3272.00,0.0092
3259.00,0.0089
3246.00,0.0085
3233.00,0.0080
3220.00,0.0079
3207.00,0.0078
3194.00,0.0075
3181.00,0.0075
3168.00,0.0076
3155.00,0.0074
3142.00,0.0073
3129.00,0.0072
3116.00,0.0071
3103.00,0.0072
3090.00,0.0077
3077.00,0.0155
3064.00,0.0092
3051.00,0.0082
3038.00,0.0098
3025.00,0.0096
3012.00,0.0096
2999.00,0.0116
2986.00,0.0158
2973.00,0.0321
2960.00,0.0461
2947.00,0.0398
2934.00,0.0685
2921.00,0.0872
2908.00,0.0657
2895.00,0.0439
2882.00,0.0366
2869.00,0.0412
2856.00,0.0661
2843.00,0.0276
2830.00,0.0354
2817.00,0.0153
2804.00,0.0117
2791.00,0.0101
2778.00,0.0090
2765.00,0.0084
2752.00,0.0081
2739.00,0.0086
2726.00,0.0097
2713.00,0.0081
2700.00,0.0076
2687.00,0.0077
2674.00,0.0081
2661.00,0.0084
2648.00,0.0082
2635.00,0.0079
2622.00,0.0079
2609.00,0.0077
2596.00,0.0074
2583.00,0.0073
2570.00,0.0073
2557.00,0.0072
2544.00,0.0070
2531.00,0.0070
2518.00,0.0069
2505.00,0.0069
2492.00,0.0070
2479.00,0.0070
2466.00,0.0070
2453.00,0.0073
2440.00,0.0067
2427.00,0.0062
2414.00,0.0059
2401.00,0.0057
2388.00,0.0057
2375.00,0.0053
2362.00,0.0052
2349.00,0.0052
2336.00,0.0056
2323.00,0.0067
2310.00,0.0057
2297.00,0.0059
2284.00,0.0066
2271.00,0.0059
2258.00,0.0058
2245.00,0.0057
2232.00,0.0057
2219.00,0.0055
2206.00,0.0055
2193.00,0.0056
2180.00,0.0051
2167.00,0.0063
2154.00,0.0024
2141.00,0.0031
2128.00,0.0036
2115.00,0.0048
2102.00,0.0045
2089.00,0.0046
2076.00,0.0048
2063.00,0.0042
2050.00,0.0052
2037.00,0.0041
2024.00,0.0031
2011.00,0.0034
1998.00,0.0035
1985.00,0.0049
1972.00,0.0031
1959.00,0.0029
1946.00,0.0034
1933.00,0.0037
1920.00,0.0039
1907.00,0.0042
1894.00,0.0043
1881.00,0.0045
1868.00,0.0045
1855.00,0.0045
1842.00,0.0046
1829.00,0.0048
1816.00,0.0048
1803.00,0.0061
1790.00,0.0055
1777.00,0.0061
1764.00,0.0060
1751.00,0.0057
1738.00,0.0059
1725.00,0.0063
1712.00,0.0070
1699.00,0.0079
1686.00,0.0083
1673.00,0.0102
1660.00,0.0144
1647.00,0.0319
1634.00,0.0612
1621.00,0.0867
1608.00,0.0259
1595.00,0.0302
1582.00,0.1116
1569.00,0.0371
1556.00,0.0162
1543.00,0.0123
1530.00,0.0126
1517.00,0.0270
1504.00,0.0187
1491.00,0.0130
1478.00,0.0132
1465.00,0.0408
1452.00,0.0737
1439.00,0.1303
1426.00,0.0554
1413.00,0.0196
1400.00,0.0159
1387.00,0.0166
1374.00,0.0587
1361.00,0.0273
1348.00,0.0278
1335.00,0.0278
1322.00,0.0385
1309.00,0.0563
1296.00,0.0546
1283.00,0.0534
1270.00,0.0391
1257.00,0.0197
1244.00,0.0336
1231.00,0.0631
1218.00,0.1405
1205.00,0.0972
1192.00,0.0403
1179.00,0.0531
1166.00,0.0349
1153.00,0.0492
1140.00,0.0222
1127.00,0.0172
1114.00,0.0167
1101.00,0.0299
1088.00,0.0197
1075.00,0.0261
1062.00,0.0223
1049.00,0.0693
1036.00,0.0600
1023.00,0.0779
1010.00,0.0602
997.00,0.0522
984.00,0.0424
971.00,0.0301
958.00,0.0414
945.00,0.0196
932.00,0.0196
919.00,0.0225
906.00,0.0349
893.00,0.0877
880.00,0.0904
867.00,0.0529
854.00,0.0730
841.00,0.0588
828.00,0.0755
815.00,0.0326
802.00,0.0556
789.00,0.0277
776.00,0.0240
763.00,0.0188
750.00,0.0312
737.00,0.0196
724.00,0.0223
711.00,0.0173
698.00,0.0145
685.00,0.0153
672.00,0.0232
659.00,0.0317
646.00,0.0322
633.00,0.0255
620.00,0.0285
607.00,0.0347
594.00,0.0432
581.00,0.0482
568.00,0.0461
555.00,0.0479
542.00,0.0643
529.00,0.0746
516.00,0.0668
503.00,0.0850
490.00,0.1076
477.00,0.0902
464.00,0.1013
451.00,0.0946
438.00,0.0778
425.00,0.1015
412.00,0.0970
400.00,0.1199