File: FTIR/Mary/Mechano/CoCrystal/2025_07_09_MC_CoCrystal_CBD_LPro_Scan.csv
Created as New Dataset,Sample 806 By YargerLab Date Wednesday, July 09 2025
cm-1,A
4000.00,0.0019
3987.00,0.0019
3974.00,0.0019
3961.00,0.0020
3948.00,0.0019
3935.00,0.0018
3922.00,0.0018
3909.00,0.0017
3896.00,0.0016
3883.00,0.0016
3870.00,0.0015
3857.00,0.0015
3844.00,0.0015
3831.00,0.0013
3818.00,0.0012
3805.00,0.0012
3792.00,0.0013
3779.00,0.0013
3766.00,0.0012
3753.00,0.0012
3740.00,0.0010
3727.00,0.0011
3714.00,0.0011
3701.00,0.0010
3688.00,0.0010
3675.00,0.0010
3662.00,0.0012
3649.00,0.0011
3636.00,0.0013
3623.00,0.0017
3610.00,0.0021
3597.00,0.0023
3584.00,0.0028
3571.00,0.0038
3558.00,0.0052
3545.00,0.0077
3532.00,0.0141
3519.00,0.0263
3506.00,0.0193
3493.00,0.0226
3480.00,0.0306
3467.00,0.0470
3454.00,0.0977
3441.00,0.0803
3428.00,0.0559
3415.00,0.0539
3402.00,0.0479
3389.00,0.0364
3376.00,0.0310
3363.00,0.0277
3350.00,0.0256
3337.00,0.0241
3324.00,0.0233
3311.00,0.0229
3298.00,0.0232
3285.00,0.0242
3272.00,0.0249
3259.00,0.0270
3246.00,0.0279
3233.00,0.0294
3220.00,0.0310
3207.00,0.0328
3194.00,0.0341
3181.00,0.0348
3168.00,0.0354
3155.00,0.0353
3142.00,0.0371
3129.00,0.0385
3116.00,0.0393
3103.00,0.0412
3090.00,0.0417
3077.00,0.0471
3064.00,0.0448
3051.00,0.0373
3038.00,0.0367
3025.00,0.0349
3012.00,0.0331
2999.00,0.0358
2986.00,0.0435
2973.00,0.0599
2960.00,0.0838
2947.00,0.0825
2934.00,0.1216
2921.00,0.1587
2908.00,0.1055
2895.00,0.0744
2882.00,0.0663
2869.00,0.0781
2856.00,0.0984
2843.00,0.0567
2830.00,0.0536
2817.00,0.0306
2804.00,0.0261
2791.00,0.0241
2778.00,0.0238
2765.00,0.0248
2752.00,0.0254
2739.00,0.0262
2726.00,0.0277
2713.00,0.0269
2700.00,0.0271
2687.00,0.0275
2674.00,0.0275
2661.00,0.0281
2648.00,0.0269
2635.00,0.0262
2622.00,0.0256
2609.00,0.0250
2596.00,0.0240
2583.00,0.0230
2570.00,0.0229
2557.00,0.0237
2544.00,0.0230
2531.00,0.0217
2518.00,0.0210
2505.00,0.0196
2492.00,0.0190
2479.00,0.0190
2466.00,0.0188
2453.00,0.0193
2440.00,0.0192
2427.00,0.0186
2414.00,0.0178
2401.00,0.0161
2388.00,0.0146
2375.00,0.0131
2362.00,0.0118
2349.00,0.0108
2336.00,0.0101
2323.00,0.0099
2310.00,0.0083
2297.00,0.0077
2284.00,0.0074
2271.00,0.0064
2258.00,0.0063
2245.00,0.0055
2232.00,0.0054
2219.00,0.0049
2206.00,0.0044
2193.00,0.0041
2180.00,0.0036
2167.00,0.0043
2154.00,0.0009
2141.00,0.0017
2128.00,0.0016
2115.00,0.0023
2102.00,0.0020
2089.00,0.0019
2076.00,0.0018
2063.00,0.0008
2050.00,0.0017
2037.00,0.0009
2024.00,0.0005
2011.00,0.0007
1998.00,0.0007
1985.00,0.0021
1972.00,0.0007
1959.00,0.0008
1946.00,0.0014
1933.00,0.0016
1920.00,0.0020
1907.00,0.0019
1894.00,0.0019
1881.00,0.0021
1868.00,0.0024
1855.00,0.0023
1842.00,0.0028
1829.00,0.0029
1816.00,0.0028
1803.00,0.0039
1790.00,0.0049
1777.00,0.0057
1764.00,0.0052
1751.00,0.0053
1738.00,0.0054
1725.00,0.0065
1712.00,0.0075
1699.00,0.0089
1686.00,0.0098
1673.00,0.0140
1660.00,0.0258
1647.00,0.0732
1634.00,0.1984
1621.00,0.1264
1608.00,0.0581
1595.00,0.0815
1582.00,0.2340
1569.00,0.1978
1556.00,0.1056
1543.00,0.0599
1530.00,0.0541
1517.00,0.0563
1504.00,0.0358
1491.00,0.0284
1478.00,0.0355
1465.00,0.0755
1452.00,0.1715
1439.00,0.2496
1426.00,0.1160
1413.00,0.0795
1400.00,0.0860
1387.00,0.0702
1374.00,0.1154
1361.00,0.0914
1348.00,0.1225
1335.00,0.1114
1322.00,0.1392
1309.00,0.1135
1296.00,0.1051
1283.00,0.1501
1270.00,0.0868
1257.00,0.0590
1244.00,0.1262
1231.00,0.0995
1218.00,0.1380
1205.00,0.1567
1192.00,0.0616
1179.00,0.0757
1166.00,0.0896
1153.00,0.0743
1140.00,0.0379
1127.00,0.0240
1114.00,0.0217
1101.00,0.0440
1088.00,0.0294
1075.00,0.0301
1062.00,0.0419
1049.00,0.1006
1036.00,0.1324
1023.00,0.1256
1010.00,0.0716
997.00,0.0650
984.00,0.0503
971.00,0.0362
958.00,0.0605
945.00,0.0408
932.00,0.0356
919.00,0.0548
906.00,0.0613
893.00,0.1181
880.00,0.1186
867.00,0.0919
854.00,0.1465
841.00,0.1256
828.00,0.1125
815.00,0.0564
802.00,0.0997
789.00,0.0698
776.00,0.0571
763.00,0.0562
750.00,0.0535
737.00,0.0592
724.00,0.0535
711.00,0.0496
698.00,0.0476
685.00,0.0594
672.00,0.0721
659.00,0.0554
646.00,0.0562
633.00,0.0583
620.00,0.0512
607.00,0.0613
594.00,0.0664
581.00,0.0832
568.00,0.0534
555.00,0.0836
542.00,0.0840
529.00,0.0955
516.00,0.0712
503.00,0.0880
490.00,0.1690
477.00,0.1729
464.00,0.1642
451.00,0.1313
438.00,0.1157
425.00,0.1023
412.00,0.0888
400.00,0.0965