File: FTIR/Mary/Mechano/CoCrystal/2025_07_09_L_Proline_MC_Lot_131547_25G_Scan3.csv
Created as New Dataset,Sample 803 By YargerLab Date Wednesday, July 09 2025
cm-1,A
4000.00,0.0097
3987.00,0.0097
3974.00,0.0097
3961.00,0.0097
3948.00,0.0097
3935.00,0.0097
3922.00,0.0097
3909.00,0.0097
3896.00,0.0095
3883.00,0.0095
3870.00,0.0096
3857.00,0.0094
3844.00,0.0095
3831.00,0.0094
3818.00,0.0093
3805.00,0.0093
3792.00,0.0094
3779.00,0.0093
3766.00,0.0093
3753.00,0.0091
3740.00,0.0088
3727.00,0.0089
3714.00,0.0089
3701.00,0.0088
3688.00,0.0087
3675.00,0.0087
3662.00,0.0089
3649.00,0.0086
3636.00,0.0086
3623.00,0.0086
3610.00,0.0086
3597.00,0.0085
3584.00,0.0086
3571.00,0.0087
3558.00,0.0088
3545.00,0.0090
3532.00,0.0096
3519.00,0.0111
3506.00,0.0099
3493.00,0.0097
3480.00,0.0098
3467.00,0.0101
3454.00,0.0106
3441.00,0.0109
3428.00,0.0113
3415.00,0.0118
3402.00,0.0118
3389.00,0.0106
3376.00,0.0099
3363.00,0.0095
3350.00,0.0093
3337.00,0.0091
3324.00,0.0090
3311.00,0.0090
3298.00,0.0090
3285.00,0.0092
3272.00,0.0092
3259.00,0.0098
3246.00,0.0102
3233.00,0.0106
3220.00,0.0116
3207.00,0.0127
3194.00,0.0139
3181.00,0.0153
3168.00,0.0168
3155.00,0.0183
3142.00,0.0206
3129.00,0.0237
3116.00,0.0275
3103.00,0.0342
3090.00,0.0428
3077.00,0.0551
3064.00,0.0675
3051.00,0.0733
3038.00,0.0709
3025.00,0.0644
3012.00,0.0633
2999.00,0.0613
2986.00,0.0777
2973.00,0.0675
2960.00,0.0639
2947.00,0.0606
2934.00,0.0564
2921.00,0.0542
2908.00,0.0514
2895.00,0.0487
2882.00,0.0481
2869.00,0.0472
2856.00,0.0472
2843.00,0.0458
2830.00,0.0471
2817.00,0.0502
2804.00,0.0534
2791.00,0.0552
2778.00,0.0576
2765.00,0.0546
2752.00,0.0506
2739.00,0.0478
2726.00,0.0468
2713.00,0.0463
2700.00,0.0469
2687.00,0.0487
2674.00,0.0501
2661.00,0.0510
2648.00,0.0520
2635.00,0.0522
2622.00,0.0524
2609.00,0.0517
2596.00,0.0520
2583.00,0.0525
2570.00,0.0520
2557.00,0.0518
2544.00,0.0518
2531.00,0.0537
2518.00,0.0564
2505.00,0.0587
2492.00,0.0584
2479.00,0.0576
2466.00,0.0577
2453.00,0.0568
2440.00,0.0568
2427.00,0.0600
2414.00,0.0637
2401.00,0.0673
2388.00,0.0694
2375.00,0.0674
2362.00,0.0657
2349.00,0.0636
2336.00,0.0616
2323.00,0.0600
2310.00,0.0575
2297.00,0.0567
2284.00,0.0545
2271.00,0.0513
2258.00,0.0486
2245.00,0.0459
2232.00,0.0433
2219.00,0.0412
2206.00,0.0394
2193.00,0.0375
2180.00,0.0341
2167.00,0.0328
2154.00,0.0273
2141.00,0.0262
2128.00,0.0247
2115.00,0.0240
2102.00,0.0223
2089.00,0.0210
2076.00,0.0202
2063.00,0.0185
2050.00,0.0187
2037.00,0.0174
2024.00,0.0156
2011.00,0.0157
1998.00,0.0163
1985.00,0.0169
1972.00,0.0142
1959.00,0.0136
1946.00,0.0135
1933.00,0.0129
1920.00,0.0127
1907.00,0.0121
1894.00,0.0113
1881.00,0.0111
1868.00,0.0106
1855.00,0.0107
1842.00,0.0111
1829.00,0.0107
1816.00,0.0106
1803.00,0.0106
1790.00,0.0107
1777.00,0.0108
1764.00,0.0114
1751.00,0.0115
1738.00,0.0120
1725.00,0.0124
1712.00,0.0134
1699.00,0.0148
1686.00,0.0168
1673.00,0.0190
1660.00,0.0210
1647.00,0.0281
1634.00,0.0648
1621.00,0.1482
1608.00,0.1634
1595.00,0.1239
1582.00,0.1248
1569.00,0.1614
1556.00,0.2045
1543.00,0.1934
1530.00,0.1560
1517.00,0.1204
1504.00,0.0950
1491.00,0.0784
1478.00,0.0917
1465.00,0.0878
1452.00,0.1329
1439.00,0.1342
1426.00,0.1037
1413.00,0.1532
1400.00,0.1797
1387.00,0.1983
1374.00,0.2649
1361.00,0.1858
1348.00,0.1292
1335.00,0.0929
1322.00,0.0977
1309.00,0.0758
1296.00,0.1424
1283.00,0.1302
1270.00,0.0776
1257.00,0.0989
1244.00,0.0691
1231.00,0.0560
1218.00,0.0505
1205.00,0.0425
1192.00,0.0357
1179.00,0.0383
1166.00,0.0668
1153.00,0.0368
1140.00,0.0290
1127.00,0.0260
1114.00,0.0241
1101.00,0.0273
1088.00,0.0640
1075.00,0.0341
1062.00,0.0342
1049.00,0.0530
1036.00,0.1013
1023.00,0.0458
1010.00,0.0288
997.00,0.0314
984.00,0.0605
971.00,0.0286
958.00,0.0276
945.00,0.0618
932.00,0.0309
919.00,0.0550
906.00,0.0483
893.00,0.0361
880.00,0.0397
867.00,0.0469
854.00,0.0860
841.00,0.0945
828.00,0.0725
815.00,0.0458
802.00,0.0676
789.00,0.1094
776.00,0.0548
763.00,0.0329
750.00,0.0259
737.00,0.0221
724.00,0.0224
711.00,0.0311
698.00,0.0593
685.00,0.0593
672.00,0.0683
659.00,0.0751
646.00,0.1422
633.00,0.1238
620.00,0.0549
607.00,0.0312
594.00,0.0246
581.00,0.0294
568.00,0.0298
555.00,0.0212
542.00,0.0220
529.00,0.0235
516.00,0.0256
503.00,0.0279
490.00,0.0307
477.00,0.0386
464.00,0.0835
451.00,0.2231
438.00,0.0937
425.00,0.0588
412.00,0.0624
400.00,0.0864