File: FTIR/Mary/Mechano/CoCrystal/2025_07_09_L_Proline_MC_Lot_131547_25G_Scan2.csv
Created as New Dataset,Sample 802 By YargerLab Date Wednesday, July 09 2025
cm-1,A
4000.00,0.0109
3987.00,0.0109
3974.00,0.0108
3961.00,0.0109
3948.00,0.0110
3935.00,0.0109
3922.00,0.0110
3909.00,0.0109
3896.00,0.0108
3883.00,0.0107
3870.00,0.0108
3857.00,0.0108
3844.00,0.0107
3831.00,0.0106
3818.00,0.0104
3805.00,0.0105
3792.00,0.0106
3779.00,0.0105
3766.00,0.0104
3753.00,0.0103
3740.00,0.0101
3727.00,0.0101
3714.00,0.0101
3701.00,0.0100
3688.00,0.0099
3675.00,0.0099
3662.00,0.0100
3649.00,0.0099
3636.00,0.0098
3623.00,0.0098
3610.00,0.0099
3597.00,0.0097
3584.00,0.0098
3571.00,0.0098
3558.00,0.0099
3545.00,0.0101
3532.00,0.0107
3519.00,0.0121
3506.00,0.0110
3493.00,0.0108
3480.00,0.0109
3467.00,0.0111
3454.00,0.0115
3441.00,0.0119
3428.00,0.0123
3415.00,0.0128
3402.00,0.0128
3389.00,0.0116
3376.00,0.0110
3363.00,0.0106
3350.00,0.0104
3337.00,0.0103
3324.00,0.0101
3311.00,0.0101
3298.00,0.0100
3285.00,0.0102
3272.00,0.0102
3259.00,0.0108
3246.00,0.0113
3233.00,0.0116
3220.00,0.0126
3207.00,0.0136
3194.00,0.0148
3181.00,0.0162
3168.00,0.0177
3155.00,0.0192
3142.00,0.0215
3129.00,0.0245
3116.00,0.0282
3103.00,0.0349
3090.00,0.0435
3077.00,0.0557
3064.00,0.0682
3051.00,0.0742
3038.00,0.0717
3025.00,0.0653
3012.00,0.0642
2999.00,0.0622
2986.00,0.0786
2973.00,0.0685
2960.00,0.0650
2947.00,0.0617
2934.00,0.0576
2921.00,0.0554
2908.00,0.0526
2895.00,0.0499
2882.00,0.0492
2869.00,0.0484
2856.00,0.0483
2843.00,0.0470
2830.00,0.0482
2817.00,0.0513
2804.00,0.0546
2791.00,0.0563
2778.00,0.0588
2765.00,0.0558
2752.00,0.0518
2739.00,0.0491
2726.00,0.0480
2713.00,0.0475
2700.00,0.0482
2687.00,0.0499
2674.00,0.0513
2661.00,0.0521
2648.00,0.0532
2635.00,0.0533
2622.00,0.0535
2609.00,0.0529
2596.00,0.0530
2583.00,0.0537
2570.00,0.0532
2557.00,0.0529
2544.00,0.0530
2531.00,0.0548
2518.00,0.0575
2505.00,0.0598
2492.00,0.0595
2479.00,0.0587
2466.00,0.0588
2453.00,0.0579
2440.00,0.0581
2427.00,0.0611
2414.00,0.0649
2401.00,0.0685
2388.00,0.0708
2375.00,0.0690
2362.00,0.0675
2349.00,0.0653
2336.00,0.0635
2323.00,0.0617
2310.00,0.0592
2297.00,0.0581
2284.00,0.0560
2271.00,0.0528
2258.00,0.0500
2245.00,0.0474
2232.00,0.0448
2219.00,0.0426
2206.00,0.0407
2193.00,0.0391
2180.00,0.0358
2167.00,0.0342
2154.00,0.0292
2141.00,0.0278
2128.00,0.0264
2115.00,0.0255
2102.00,0.0237
2089.00,0.0226
2076.00,0.0216
2063.00,0.0199
2050.00,0.0203
2037.00,0.0189
2024.00,0.0172
2011.00,0.0173
1998.00,0.0177
1985.00,0.0187
1972.00,0.0157
1959.00,0.0150
1946.00,0.0148
1933.00,0.0143
1920.00,0.0140
1907.00,0.0135
1894.00,0.0126
1881.00,0.0125
1868.00,0.0120
1855.00,0.0120
1842.00,0.0123
1829.00,0.0120
1816.00,0.0119
1803.00,0.0117
1790.00,0.0118
1777.00,0.0119
1764.00,0.0125
1751.00,0.0126
1738.00,0.0130
1725.00,0.0133
1712.00,0.0143
1699.00,0.0156
1686.00,0.0175
1673.00,0.0198
1660.00,0.0217
1647.00,0.0287
1634.00,0.0657
1621.00,0.1500
1608.00,0.1659
1595.00,0.1254
1582.00,0.1261
1569.00,0.1633
1556.00,0.2077
1543.00,0.1956
1530.00,0.1586
1517.00,0.1229
1504.00,0.0974
1491.00,0.0802
1478.00,0.0932
1465.00,0.0893
1452.00,0.1349
1439.00,0.1361
1426.00,0.1052
1413.00,0.1556
1400.00,0.1826
1387.00,0.2020
1374.00,0.2711
1361.00,0.1903
1348.00,0.1328
1335.00,0.0960
1322.00,0.1002
1309.00,0.0783
1296.00,0.1454
1283.00,0.1336
1270.00,0.0805
1257.00,0.1019
1244.00,0.0722
1231.00,0.0588
1218.00,0.0532
1205.00,0.0452
1192.00,0.0383
1179.00,0.0406
1166.00,0.0693
1153.00,0.0394
1140.00,0.0315
1127.00,0.0285
1114.00,0.0265
1101.00,0.0293
1088.00,0.0661
1075.00,0.0365
1062.00,0.0361
1049.00,0.0548
1036.00,0.1034
1023.00,0.0481
1010.00,0.0311
997.00,0.0335
984.00,0.0626
971.00,0.0308
958.00,0.0294
945.00,0.0641
932.00,0.0328
919.00,0.0567
906.00,0.0504
893.00,0.0383
880.00,0.0417
867.00,0.0487
854.00,0.0882
841.00,0.0975
828.00,0.0749
815.00,0.0480
802.00,0.0695
789.00,0.1121
776.00,0.0572
763.00,0.0351
750.00,0.0281
737.00,0.0242
724.00,0.0243
711.00,0.0328
698.00,0.0614
685.00,0.0615
672.00,0.0709
659.00,0.0774
646.00,0.1463
633.00,0.1283
620.00,0.0580
607.00,0.0337
594.00,0.0268
581.00,0.0313
568.00,0.0320
555.00,0.0231
542.00,0.0239
529.00,0.0253
516.00,0.0276
503.00,0.0294
490.00,0.0327
477.00,0.0406
464.00,0.0857
451.00,0.2317
438.00,0.0970
425.00,0.0621
412.00,0.0654
400.00,0.0903