File: Raman/2023_01_04/2023_01_04/Raman_Data/2023_01_04_Ag_Behenate_XRD_532nm_UnPol_750uW_750mm_600gv_977wn_iDus_100s_5accum_50x_Mit_Pos_1.csv
34.493,2306.000,5766.000,10699.000,12830.000,12920.000
46.099,2160.000,4674.000,7884.000,9276.000,9351.000
57.693,2031.000,4016.000,6154.000,7108.000,7194.000
69.271,1925.000,3969.000,5786.000,6314.000,6350.000
80.834,1903.000,3575.000,4644.000,5210.000,5200.000
92.385,1807.000,3279.000,3997.000,4381.000,4426.000
103.919,1782.000,3159.000,3724.000,4030.000,4090.000
115.442,1730.000,3054.000,3487.000,3802.000,3801.000
126.948,1667.000,2923.000,3294.000,3573.000,3603.000
138.440,1638.000,2842.000,3235.000,3414.000,3420.000
149.920,1579.000,2817.000,3107.000,3252.000,3289.000
161.384,1552.000,2782.000,2950.000,3221.000,3127.000
172.834,1515.000,2640.000,2767.000,2775.000,2764.000
184.272,1449.000,2564.000,2490.000,2523.000,2576.000
195.693,1446.000,2541.000,2369.000,2441.000,2450.000
207.101,1407.000,2540.000,2455.000,2479.000,2497.000
218.497,1378.000,2535.000,2446.000,2443.000,2545.000
229.877,1380.000,2498.000,2515.000,2617.000,2680.000
241.244,1355.000,2539.000,2592.000,2677.000,2786.000
252.596,1293.000,2516.000,2784.000,2747.000,2803.000
263.934,1282.000,2545.000,2923.000,2866.000,2796.000
275.260,1311.000,2702.000,3240.000,3115.000,3069.000
286.571,1246.000,2803.000,3847.000,3616.000,3514.000
297.867,1255.000,2962.000,4213.000,3906.000,3731.000
309.152,1235.000,2750.000,3411.000,3268.000,3109.000
320.421,1255.000,2476.000,2546.000,2440.000,2314.000
331.678,1243.000,2354.000,2128.000,2113.000,2023.000
342.920,1220.000,2322.000,2019.000,1936.000,1899.000
354.148,1208.000,2283.000,1922.000,1837.000,1827.000
365.364,1194.000,2265.000,1915.000,1825.000,1796.000
376.564,1233.000,2244.000,1921.000,1815.000,1801.000
387.751,1204.000,2224.000,1840.000,1773.000,1802.000
398.927,1157.000,2238.000,1824.000,1770.000,1795.000
410.087,1190.000,2247.000,1862.000,1767.000,1793.000
421.233,1186.000,2207.000,1868.000,1771.000,1801.000
432.368,1201.000,2175.000,1872.000,1751.000,1839.000
443.487,1159.000,2232.000,1857.000,1811.000,1832.000
454.595,1153.000,2211.000,1883.000,1815.000,1853.000
465.687,1153.000,2219.000,1911.000,1836.000,1873.000
476.766,1154.000,2153.000,1881.000,1821.000,1830.000
487.834,1161.000,2221.000,1897.000,1844.000,1844.000
498.886,1171.000,2172.000,1889.000,1811.000,1853.000
509.925,1132.000,2150.000,1887.000,1836.000,1826.000
520.953,1153.000,2125.000,1891.000,1869.000,1836.000
531.965,1176.000,2171.000,1972.000,1866.000,1892.000
542.964,1148.000,2182.000,1916.000,1859.000,1892.000
553.952,1140.000,2137.000,1961.000,1917.000,1950.000
564.924,1138.000,2149.000,2023.000,1912.000,1928.000
575.886,1138.000,2108.000,1996.000,1938.000,1953.000
586.832,1151.000,2190.000,2031.000,1951.000,1975.000
597.765,1142.000,2222.000,2019.000,1952.000,1992.000
608.687,1154.000,2135.000,2106.000,2016.000,2040.000
619.594,1131.000,2166.000,2027.000,2068.000,2132.000
630.488,1133.000,2119.000,2029.000,2041.000,2129.000
641.371,1124.000,2130.000,2144.000,2100.000,2187.000
652.238,1150.000,2179.000,2272.000,2367.000,2452.000
663.095,1137.000,2274.000,2648.000,2699.000,2802.000
673.937,1145.000,2467.000,3535.000,3459.000,3558.000
684.765,1141.000,2369.000,3295.000,3284.000,3261.000
695.583,1127.000,2185.000,2637.000,2592.000,2618.000
706.386,1182.000,2210.000,2461.000,2454.000,2473.000
717.176,1129.000,2139.000,2271.000,2208.000,2230.000
727.955,1138.000,2156.000,2214.000,2155.000,2315.000
738.720,1146.000,2135.000,2244.000,2122.000,2229.000
749.471,1147.000,2131.000,2204.000,2217.000,2243.000
760.212,1126.000,2151.000,2197.000,2196.000,2189.000
770.938,1127.000,2077.000,2236.000,2168.000,2214.000
781.653,1116.000,2155.000,2219.000,2261.000,2267.000
792.354,1134.000,2155.000,2239.000,2239.000,2313.000
803.041,1124.000,2168.000,2302.000,2313.000,2370.000
813.718,1139.000,2136.000,2355.000,2391.000,2384.000
824.381,1130.000,2098.000,2356.000,2307.000,2477.000
835.031,1122.000,2148.000,2365.000,2371.000,2410.000
845.670,1135.000,2113.000,2328.000,2336.000,2312.000
856.294,1130.000,2116.000,2321.000,2293.000,2299.000
866.906,1108.000,2088.000,2291.000,2238.000,2324.000
877.508,1123.000,2131.000,2285.000,2273.000,2334.000
888.095,1160.000,2121.000,2311.000,2233.000,2289.000
898.671,1125.000,2094.000,2253.000,2256.000,2290.000
909.233,1158.000,2134.000,2324.000,2392.000,2337.000
919.782,1143.000,2239.000,2474.000,2481.000,2449.000
930.321,1200.000,2151.000,2445.000,2411.000,2429.000
940.846,1147.000,2137.000,2373.000,2350.000,2405.000
951.358,1143.000,2071.000,2367.000,2406.000,2453.000
961.860,1135.000,2072.000,2359.000,2448.000,2477.000
972.348,1153.000,1989.000,2374.000,2425.000,2483.000
982.825,1125.000,2042.000,2392.000,2418.000,2433.000
993.288,1126.000,2050.000,2357.000,2399.000,2439.000
1003.738,1148.000,2023.000,2422.000,2355.000,2438.000
1014.179,1146.000,2052.000,2464.000,2420.000,2519.000
1024.605,1147.000,2124.000,2916.000,2891.000,2940.000
1035.019,1149.000,2398.000,3956.000,3879.000,3821.000
1045.422,1172.000,2599.000,4671.000,4747.000,4562.000
1055.812,1240.000,2298.000,3264.000,3300.000,3220.000
1066.189,1158.000,2107.000,2611.000,2547.000,2546.000
1076.556,1171.000,2096.000,2479.000,2536.000,2541.000
1086.909,1191.000,2066.000,2473.000,2534.000,2573.000
1097.252,1175.000,2103.000,2519.000,2501.000,2597.000
1107.581,1223.000,2092.000,2549.000,2551.000,2624.000
1117.898,1193.000,2083.000,2524.000,2521.000,2602.000
1128.205,1205.000,2084.000,2551.000,2561.000,2681.000
1138.498,1162.000,1978.000,2463.000,2523.000,2707.000
1148.779,1171.000,1980.000,2517.000,2544.000,2762.000
1159.049,1205.000,1989.000,2483.000,2606.000,2728.000
1169.306,1180.000,2018.000,2545.000,2560.000,2774.000
1179.553,1187.000,2028.000,2523.000,2618.000,2854.000
1189.786,1187.000,2028.000,2546.000,2672.000,2759.000
1200.008,1196.000,2017.000,2585.000,2713.000,2936.000
1210.219,1182.000,2010.000,2599.000,2724.000,2904.000
1220.417,1189.000,2033.000,2642.000,2782.000,2894.000
1230.602,1205.000,2008.000,2674.000,2785.000,2890.000
1240.778,1149.000,2007.000,2687.000,2877.000,2999.000
1250.940,1184.000,2055.000,2805.000,2996.000,3090.000
1261.091,1191.000,2012.000,2846.000,3057.000,3208.000
1271.231,1203.000,2029.000,2865.000,3076.000,3309.000
1281.358,1250.000,2067.000,2932.000,3151.000,3306.000
1291.473,1307.000,2145.000,2987.000,3166.000,3383.000
1301.579,1177.000,2110.000,3014.000,3210.000,3485.000
1311.671,1210.000,2098.000,3031.000,3231.000,3539.000
1321.753,1220.000,2034.000,2951.000,3201.000,3460.000
1331.822,1222.000,2035.000,2898.000,3161.000,3269.000
1341.879,1214.000,2061.000,2883.000,3058.000,3230.000
1351.926,1236.000,2056.000,2895.000,3130.000,3244.000
1361.960,1245.000,2071.000,2848.000,3062.000,3147.000
1371.982,1228.000,2135.000,2940.000,3049.000,3151.000
1381.995,1272.000,2206.000,3015.000,3271.000,3204.000
1391.994,1263.000,2222.000,3066.000,3153.000,3178.000
1401.984,1295.000,2130.000,2958.000,3058.000,3191.000
1411.961,1283.000,2089.000,2908.000,3025.000,3113.000
1421.926,1278.000,2059.000,2895.000,3067.000,3141.000
1431.881,1362.000,2203.000,2930.000,3010.000,3155.000
1441.823,1440.000,2172.000,2912.000,3026.000,3142.000
1451.754,1415.000,2171.000,2982.000,3080.000,3227.000
1461.675,1461.000,2212.000,3102.000,3155.000,3211.000
1471.583,1304.000,2127.000,3120.000,3183.000,3352.000
1481.480,1277.000,2183.000,3285.000,3352.000,3536.000
1491.368,1275.000,2179.000,3589.000,3697.000,3835.000
1501.242,1312.000,2296.000,4080.000,4094.000,4317.000
1511.107,1297.000,2427.000,4735.000,4766.000,5025.000
1520.958,1285.000,2635.000,5442.000,5479.000,5859.000
1530.799,1271.000,2695.000,5557.000,5688.000,5730.000
1540.630,1296.000,2485.000,4633.000,4953.000,4945.000
1550.448,1284.000,2198.000,3483.000,3765.000,3918.000
1560.255,1283.000,2020.000,3066.000,3384.000,3546.000
1570.052,1256.000,2024.000,2988.000,3253.000,3454.000
1579.837,1271.000,2000.000,2927.000,3314.000,3406.000
1589.612,1334.000,2007.000,2944.000,3251.000,3343.000
1599.375,1274.000,1945.000,2814.000,3124.000,3243.000
1609.126,1298.000,1992.000,2800.000,3044.000,3150.000
1618.868,1307.000,2006.000,2719.000,2920.000,3237.000
1628.598,1275.000,1950.000,2681.000,2850.000,3054.000
1638.316,1293.000,2030.000,2702.000,2790.000,3041.000
1648.025,1300.000,1929.000,2683.000,2791.000,3051.000
1657.721,1865.000,1928.000,2629.000,2797.000,2934.000
1667.407,1298.000,1910.000,2583.000,2731.000,2823.000
1677.083,1307.000,1930.000,2635.000,2665.000,2731.000
1686.746,1303.000,1900.000,2641.000,2640.000,2677.000
1696.401,1286.000,1917.000,2576.000,2592.000,2645.000
1706.042,1329.000,1949.000,2611.000,2608.000,2594.000
1715.673,1329.000,1913.000,2543.000,2614.000,2572.000
1725.295,1310.000,1955.000,2503.000,2574.000,2557.000
1734.904,1320.000,1884.000,2503.000,2512.000,2536.000
1744.502,1351.000,1897.000,2547.000,2546.000,2552.000
1754.092,1342.000,1908.000,2502.000,2494.000,2522.000
1763.669,1363.000,1939.000,2534.000,2501.000,2547.000
1773.235,1328.000,1889.000,2477.000,2525.000,2526.000
1782.792,1350.000,1905.000,2515.000,2489.000,2585.000
1792.336,1348.000,1960.000,2564.000,2519.000,2519.000
1801.872,1365.000,1933.000,2561.000,2553.000,2544.000
1811.395,1399.000,1946.000,2579.000,2624.000,2560.000
1820.907,1405.000,1954.000,2616.000,2580.000,2614.000
1825.661,1408.000,1952.000,2629.000,2591.000,2630.000