File: FTIR/16 a.trifasciata 11162021 Perceived Outer Yellow Crystals.0.dpt
3995.6,-0.00164
3983.24,-0.00198
3970.89,-0.00155
3958.53,-0.00165
3946.17,-0.00171
3933.81,-0.00158
3921.46,-0.00157
3909.1,-0.00173
3896.74,-0.00156
3884.38,-0.00139
3872.03,-0.00139
3859.67,-0.00142
3847.31,-0.00164
3834.95,-0.00156
3822.6,-0.00157
3810.24,-0.00142
3797.88,-0.00133
3785.52,-0.00150
3773.17,-0.00142
3760.81,-0.00115
3748.45,-0.00156
3736.09,-0.00150
3723.74,-0.00121
3711.38,-0.00144
3699.02,-0.00181
3686.66,-0.00190
3674.31,-0.00261
3661.95,-0.00329
3649.59,-0.00450
3637.23,-0.00541
3624.88,-0.00674
3612.52,-0.00786
3600.16,-0.00905
3587.8,-0.01011
3575.45,-0.01125
3563.09,-0.01225
3550.73,-0.01339
3538.37,-0.01448
3526.01,-0.01560
3513.66,-0.01678
3501.3,-0.01800
3488.94,-0.01894
3476.58,-0.02010
3464.23,-0.02100
3451.87,-0.02203
3439.51,-0.02280
3427.15,-0.02377
3414.8,-0.02425
3402.44,-0.02471
3390.08,-0.02511
3377.72,-0.02545
3365.37,-0.02533
3353.01,-0.02516
3340.65,-0.02518
3328.29,-0.02472
3315.94,-0.02474
3303.58,-0.02453
3291.22,-0.02458
3278.86,-0.02434
3266.51,-0.02411
3254.15,-0.02361
3241.79,-0.02310
3229.43,-0.02265
3217.08,-0.02193
3204.72,-0.02126
3192.36,-0.02035
3180,-0.01952
3167.65,-0.01847
3155.29,-0.01755
3142.93,-0.01667
3130.57,-0.01553
3118.22,-0.01459
3105.86,-0.01397
3093.5,-0.01315
3081.14,-0.01265
3068.79,-0.01187
3056.43,-0.01127
3044.07,-0.01070
3031.71,-0.01011
3019.36,-0.00945
3007,-0.00886
2994.64,-0.00859
2982.28,-0.00826
2969.93,-0.00811
2957.57,-0.00789
2945.21,-0.00763
2932.85,-0.00750
2920.5,-0.00723
2908.14,-0.00678
2895.78,-0.00661
2883.42,-0.00636
2871.07,-0.00615
2858.71,-0.00588
2846.35,-0.00582
2833.99,-0.00540
2821.64,-0.00542
2809.28,-0.00517
2796.92,-0.00505
2784.56,-0.00504
2772.21,-0.00485
2759.85,-0.00473
2747.49,-0.00461
2735.13,-0.00462
2722.78,-0.00454
2710.42,-0.00452
2698.06,-0.00436
2685.7,-0.00423
2673.35,-0.00428
2660.99,-0.00424
2648.63,-0.00417
2636.27,-0.00394
2623.92,-0.00390
2611.56,-0.00382
2599.2,-0.00390
2586.84,-0.00371
2574.49,-0.00374
2562.13,-0.00374
2549.77,-0.00356
2537.41,-0.00365
2525.06,-0.00367
2512.7,-0.00373
2500.34,-0.00369
2487.98,-0.00370
2475.62,-0.00361
2463.27,-0.00358
2450.91,-0.00355
2438.55,-0.00349
2426.19,-0.00360
2413.84,-0.00369
2401.48,-0.00368
2389.12,-0.00375
2376.76,-0.00393
2364.41,-0.00390
2352.05,-0.00385
2339.69,-0.00403
2327.33,-0.00392
2314.98,-0.00353
2302.62,-0.00378
2290.26,-0.00378
2277.9,-0.00372
2265.55,-0.00395
2253.19,-0.00359
2240.83,-0.00331
2228.47,-0.00344
2216.12,-0.00306
2203.76,-0.00295
2191.4,-0.00293
2179.04,-0.00311
2166.69,-0.00314
2154.33,-0.00343
2141.97,-0.00334
2129.61,-0.00415
2117.26,-0.00360
2104.9,-0.00332
2092.54,-0.00364
2080.18,-0.00433
2067.83,-0.00374
2055.47,-0.00298
2043.11,-0.00319
2030.75,-0.00325
2018.4,-0.00322
2006.04,-0.00325
1993.68,-0.00301
1981.32,-0.00289
1968.97,-0.00219
1956.61,-0.00249
1944.25,-0.00247
1931.89,-0.00332
1919.54,-0.00351
1907.18,-0.00319
1894.82,-0.00328
1882.46,-0.00301
1870.11,-0.00288
1857.75,-0.00305
1845.39,-0.00308
1833.03,-0.00300
1820.68,-0.00311
1808.32,-0.00305
1795.96,-0.00299
1783.6,-0.00305
1771.25,-0.00304
1758.89,-0.00334
1746.53,-0.00338
1734.17,-0.00359
1721.82,-0.00383
1709.46,-0.00448
1697.1,-0.00626
1684.74,-0.00817
1672.39,-0.01089
1660.03,-0.01361
1647.67,-0.01592
1635.31,-0.01685
1622.96,-0.01678
1610.6,-0.01588
1598.24,-0.01389
1585.88,-0.01263
1573.53,-0.01188
1561.17,-0.01183
1548.81,-0.01258
1536.45,-0.01243
1524.1,-0.01207
1511.74,-0.01163
1499.38,-0.01026
1487.02,-0.00902
1474.67,-0.00858
1462.31,-0.00854
1449.95,-0.00872
1437.59,-0.00850
1425.23,-0.00844
1412.88,-0.00906
1400.52,-0.00942
1388.16,-0.00980
1375.8,-0.00971
1363.45,-0.00952
1351.09,-0.00940
1338.73,-0.00916
1326.37,-0.00892
1314.02,-0.00873
1301.66,-0.00857
1289.3,-0.00817
1276.94,-0.00799
1264.59,-0.00787
1252.23,-0.00798
1239.87,-0.00811
1227.51,-0.00795
1215.16,-0.00764
1202.8,-0.00723
1190.44,-0.00690
1178.08,-0.00662
1165.73,-0.00701
1153.37,-0.00748
1141.01,-0.00821
1128.65,-0.00931
1116.3,-0.01085
1103.94,-0.01206
1091.58,-0.01278
1079.22,-0.01261
1066.87,-0.01185
1054.51,-0.01048
1042.15,-0.00945
1029.79,-0.00861
1017.44,-0.00807
1005.08,-0.00773
992.721,-0.00753
980.364,-0.00748
968.006,-0.00722
955.649,-0.00717
943.291,-0.00712
930.934,-0.00738
918.576,-0.00746
906.219,-0.00749
893.861,-0.00788
881.504,-0.00804
869.146,-0.00872
856.789,-0.00922
844.431,-0.00975
832.074,-0.01024
819.716,-0.01097
807.359,-0.01184
795.001,-0.01262
782.644,-0.01324
770.286,-0.01406
757.928,-0.01477
745.571,-0.01574
733.213,-0.01627
720.856,-0.01706
708.498,-0.01812
696.141,-0.01878
683.783,-0.01959
671.426,-0.02062
659.068,-0.02131
646.711,-0.02208
634.353,-0.02233
621.996,-0.02337
609.638,-0.02399
597.281,-0.02451
584.923,-0.02501
572.566,-0.02547
560.208,-0.02575
547.85,-0.02607
535.493,-0.02652
523.135,-0.02707
510.778,-0.02667
498.42,-0.02769
486.063,-0.02790
473.705,-0.02788
461.348,-0.02796
448.99,-0.02857
436.633,-0.02897
424.275,-0.02836
411.918,-0.03027
399.56,-0.02900