File: FTIR/2023_06_14_CBG_new_powder.dpt
3998.68	0.01352
3986.33	0.01390
3973.97	0.01331
3961.61	0.01366
3949.25	0.01303
3936.9	0.01329
3924.54	0.01328
3912.18	0.01349
3899.82	0.01319
3887.47	0.01288
3875.11	0.01257
3862.75	0.01259
3850.39	0.01298
3838.04	0.01343
3825.68	0.01187
3813.32	0.01275
3800.96	0.01181
3788.61	0.01234
3776.25	0.01294
3763.89	0.01210
3751.53	0.01183
3739.18	0.01194
3726.82	0.01191
3714.46	0.01135
3702.1	0.01148
3689.75	0.01194
3677.39	0.01181
3665.03	0.01124
3652.67	0.01170
3640.32	0.01085
3627.96	0.01003
3615.6	0.01207
3603.24	0.01161
3590.89	0.01248
3578.53	0.01290
3566.17	0.01351
3553.81	0.01538
3541.46	0.01670
3529.1	0.01964
3516.74	0.02355
3504.38	0.02803
3492.03	0.03399
3479.67	0.04602
3467.31	0.07072
3454.95	0.09173
3442.6	0.07300
3430.24	0.06791
3417.88	0.06581
3405.52	0.05694
3393.17	0.05211
3380.81	0.05073
3368.45	0.05176
3356.09	0.05302
3343.74	0.05519
3331.38	0.05800
3319.02	0.06328
3306.66	0.07111
3294.31	0.08129
3281.95	0.09335
3269.59	0.10390
3257.23	0.10670
3244.88	0.10083
3232.52	0.08886
3220.16	0.08021
3207.8	0.07520
3195.45	0.07069
3183.09	0.06796
3170.73	0.06395
3158.37	0.05933
3146.02	0.05596
3133.66	0.05173
3121.3	0.04718
3108.94	0.04312
3096.59	0.04086
3084.23	0.03775
3071.87	0.03652
3059.51	0.03434
3047.16	0.03415
3034.8	0.03661
3022.44	0.03564
3010.08	0.03733
2997.73	0.04497
2985.37	0.06185
2973.01	0.08137
2960.65	0.16164
2948.3	0.11567
2935.94	0.16709
2923.58	0.26462
2911.22	0.21092
2898.87	0.14049
2886.51	0.11064
2874.15	0.11101
2861.79	0.13156
2849.44	0.16650
2837.08	0.08371
2824.72	0.05823
2812.36	0.04644
2800.01	0.04152
2787.65	0.03733
2775.29	0.03491
2762.93	0.03323
2750.58	0.03318
2738.22	0.03404
2725.86	0.03714
2713.5	0.03255
2701.15	0.03031
2688.79	0.02988
2676.43	0.02936
2664.07	0.02789
2651.72	0.02670
2639.36	0.02547
2627	0.02438
2614.64	0.02338
2602.29	0.02232
2589.93	0.02179
2577.57	0.02126
2565.21	0.02103
2552.86	0.01966
2540.5	0.01943
2528.14	0.01925
2515.78	0.01841
2503.43	0.01807
2491.07	0.01787
2478.71	0.01793
2466.35	0.01762
2454	0.01692
2441.64	0.01641
2429.28	0.01635
2416.92	0.01644
2404.57	0.01586
2392.21	0.01509
2379.85	0.01522
2367.49	0.01546
2355.14	0.01547
2342.78	0.01502
2330.42	0.01590
2318.06	0.01592
2305.71	0.01536
2293.35	0.01411
2280.99	0.01364
2268.63	0.01354
2256.28	0.01289
2243.92	0.01275
2231.56	0.01174
2219.2	0.01215
2206.85	0.01170
2194.49	0.01103
2182.13	0.01032
2169.77	0.01097
2157.42	0.00690
2145.06	0.00916
2132.7	0.00956
2120.34	0.01154
2107.99	0.01194
2095.63	0.01008
2083.27	0.01199
2070.91	0.01054
2058.56	0.01072
2046.2	0.00858
2033.84	0.00713
2021.48	0.00856
2009.13	0.00922
1996.77	0.00827
1984.41	0.00944
1972.05	0.00908
1959.7	0.00915
1947.34	0.00904
1934.98	0.01046
1922.62	0.01026
1910.27	0.01062
1897.91	0.01035
1885.55	0.01088
1873.19	0.01078
1860.84	0.01084
1848.48	0.01087
1836.12	0.01146
1823.76	0.01159
1811.41	0.01202
1799.05	0.01171
1786.69	0.01208
1774.33	0.01223
1761.98	0.01342
1749.62	0.01346
1737.26	0.01581
1724.9	0.01375
1712.55	0.01547
1700.19	0.01318
1687.83	0.01553
1675.47	0.02145
1663.12	0.01830
1650.76	0.02233
1638.4	0.08460
1626.04	0.10769
1613.68	0.04662
1601.33	0.03855
1588.97	0.10598
1576.61	0.11158
1564.25	0.04498
1551.9	0.03264
1539.54	0.03473
1527.18	0.08075
1514.82	0.10903
1502.47	0.05448
1490.11	0.03436
1477.75	0.03506
1465.39	0.12636
1453.04	0.19724
1440.68	0.29743
1428.32	0.11857
1415.96	0.06448
1403.61	0.08192
1391.25	0.09503
1378.89	0.07893
1366.53	0.08078
1354.18	0.06187
1341.82	0.22271
1329.46	0.11973
1317.1	0.17052
1304.75	0.12305
1292.39	0.06742
1280.03	0.07750
1267.67	0.10645
1255.32	0.15158
1242.96	0.07082
1230.6	0.04674
1218.24	0.10792
1205.89	0.07467
1193.53	0.11148
1181.17	0.07453
1168.81	0.11652
1156.46	0.25398
1144.1	0.36829
1131.74	0.19752
1119.38	0.10451
1107.03	0.13439
1094.67	0.12306
1082.31	0.09439
1069.95	0.07094
1057.6	0.06986
1045.24	0.29174
1032.88	0.14088
1020.52	0.10852
1008.17	0.19489
995.809	0.11140
983.452	0.10957
971.094	0.10701
958.737	0.06854
946.379	0.04663
934.022	0.04059
921.664	0.08272
909.307	0.09084
896.949	0.07235
884.592	0.05361
872.234	0.04589
859.877	0.23200
847.519	0.11506
835.162	0.21759
822.804	0.07449
810.447	0.06777
798.089	0.10795
785.732	0.08667
773.374	0.09239
761.017	0.08840
748.659	0.09700
736.302	0.10520
723.944	0.12100
711.587	0.06787
699.229	0.06671
686.872	0.07001
674.514	0.07512
662.157	0.07255
649.799	0.11792
637.442	0.13313
625.084	0.14540
612.727	0.11632
600.369	0.15237
588.012	0.18489
575.654	0.19036
563.297	0.15516
550.939	0.11576
538.582	0.15242
526.224	0.14394
513.867	0.10640
501.509	0.08802
489.151	0.11375
476.794	0.08460
464.436	0.08293
452.079	0.12949
439.721	0.14070
427.364	0.15630
415.006	0.12699
402.649	0.13446
399.56	0.13193