File: FTIR/2023_06_07_CBG_powder.dpt
3998.68	0.00498
3986.33	0.00444
3973.97	0.00501
3961.61	0.00511
3949.25	0.00491
3936.9	0.00479
3924.54	0.00513
3912.18	0.00466
3899.82	0.00415
3887.47	0.00415
3875.11	0.00478
3862.75	0.00443
3850.39	0.00429
3838.04	0.00518
3825.68	0.00398
3813.32	0.00494
3800.96	0.00351
3788.61	0.00398
3776.25	0.00441
3763.89	0.00391
3751.53	0.00422
3739.18	0.00358
3726.82	0.00377
3714.46	0.00347
3702.1	0.00343
3689.75	0.00399
3677.39	0.00287
3665.03	0.00357
3652.67	0.00291
3640.32	0.00350
3627.96	0.00408
3615.6	0.00456
3603.24	0.00363
3590.89	0.00395
3578.53	0.00494
3566.17	0.00560
3553.81	0.00737
3541.46	0.00909
3529.1	0.01219
3516.74	0.01669
3504.38	0.02031
3492.03	0.02727
3479.67	0.03891
3467.31	0.06366
3454.95	0.08436
3442.6	0.06654
3430.24	0.06169
3417.88	0.05946
3405.52	0.05085
3393.17	0.04632
3380.81	0.04428
3368.45	0.04510
3356.09	0.04611
3343.74	0.04794
3331.38	0.05111
3319.02	0.05611
3306.66	0.06316
3294.31	0.07281
3281.95	0.08566
3269.59	0.09549
3257.23	0.09897
3244.88	0.09197
3232.52	0.08135
3220.16	0.07213
3207.8	0.06756
3195.45	0.06373
3183.09	0.06099
3170.73	0.05752
3158.37	0.05316
3146.02	0.04993
3133.66	0.04560
3121.3	0.04027
3108.94	0.03711
3096.59	0.03395
3084.23	0.03142
3071.87	0.02994
3059.51	0.02751
3047.16	0.02775
3034.8	0.02983
3022.44	0.02924
3010.08	0.03153
2997.73	0.03871
2985.37	0.05688
2973.01	0.07626
2960.65	0.15776
2948.3	0.10980
2935.94	0.16034
2923.58	0.25191
2911.22	0.19603
2898.87	0.13147
2886.51	0.10322
2874.15	0.10445
2861.79	0.12430
2849.44	0.14590
2837.08	0.07561
2824.72	0.05069
2812.36	0.03891
2800.01	0.03424
2787.65	0.02969
2775.29	0.02765
2762.93	0.02622
2750.58	0.02596
2738.22	0.02688
2725.86	0.03032
2713.5	0.02572
2701.15	0.02353
2688.79	0.02315
2676.43	0.02281
2664.07	0.02113
2651.72	0.02020
2639.36	0.01896
2627	0.01796
2614.64	0.01691
2602.29	0.01644
2589.93	0.01582
2577.57	0.01581
2565.21	0.01521
2552.86	0.01366
2540.5	0.01326
2528.14	0.01370
2515.78	0.01275
2503.43	0.01224
2491.07	0.01238
2478.71	0.01163
2466.35	0.01175
2454	0.01149
2441.64	0.01111
2429.28	0.01055
2416.92	0.01011
2404.57	0.01024
2392.21	0.00971
2379.85	0.00947
2367.49	0.00911
2355.14	0.01024
2342.78	0.00892
2330.42	0.00919
2318.06	0.00991
2305.71	0.00939
2293.35	0.00951
2280.99	0.00887
2268.63	0.00833
2256.28	0.00826
2243.92	0.00835
2231.56	0.00825
2219.2	0.00756
2206.85	0.00667
2194.49	0.00648
2182.13	0.00743
2169.77	0.00710
2157.42	0.00374
2145.06	0.00609
2132.7	0.00591
2120.34	0.00788
2107.99	0.00742
2095.63	0.00730
2083.27	0.00720
2070.91	0.00820
2058.56	0.00646
2046.2	0.00719
2033.84	0.00386
2021.48	0.00530
2009.13	0.00517
1996.77	0.00529
1984.41	0.00560
1972.05	0.00555
1959.7	0.00444
1947.34	0.00580
1934.98	0.00569
1922.62	0.00569
1910.27	0.00657
1897.91	0.00693
1885.55	0.00641
1873.19	0.00693
1860.84	0.00634
1848.48	0.00689
1836.12	0.00728
1823.76	0.00762
1811.41	0.00744
1799.05	0.00775
1786.69	0.00796
1774.33	0.00824
1761.98	0.00915
1749.62	0.00933
1737.26	0.01149
1724.9	0.00969
1712.55	0.01153
1700.19	0.01117
1687.83	0.01224
1675.47	0.01788
1663.12	0.01488
1650.76	0.01965
1638.4	0.08336
1626.04	0.10805
1613.68	0.04397
1601.33	0.03520
1588.97	0.10286
1576.61	0.10576
1564.25	0.04026
1551.9	0.02862
1539.54	0.02904
1527.18	0.07660
1514.82	0.10465
1502.47	0.05033
1490.11	0.03127
1477.75	0.03197
1465.39	0.12360
1453.04	0.19713
1440.68	0.30110
1428.32	0.11913
1415.96	0.06273
1403.61	0.08033
1391.25	0.09368
1378.89	0.07867
1366.53	0.07987
1354.18	0.06093
1341.82	0.22604
1329.46	0.11994
1317.1	0.16965
1304.75	0.12277
1292.39	0.06624
1280.03	0.07615
1267.67	0.10491
1255.32	0.14807
1242.96	0.06880
1230.6	0.04496
1218.24	0.10646
1205.89	0.07204
1193.53	0.10739
1181.17	0.07278
1168.81	0.11537
1156.46	0.25479
1144.1	0.37489
1131.74	0.19241
1119.38	0.09938
1107.03	0.13356
1094.67	0.12086
1082.31	0.09160
1069.95	0.06860
1057.6	0.06826
1045.24	0.29801
1032.88	0.13845
1020.52	0.10760
1008.17	0.19116
995.809	0.10798
983.452	0.10681
971.094	0.10465
958.737	0.06405
946.379	0.04233
934.022	0.03613
921.664	0.08134
909.307	0.08980
896.949	0.07105
884.592	0.05195
872.234	0.04363
859.877	0.23978
847.519	0.11710
835.162	0.22346
822.804	0.07566
810.447	0.06815
798.089	0.10928
785.732	0.08749
773.374	0.09383
761.017	0.08922
748.659	0.09784
736.302	0.10584
723.944	0.12416
711.587	0.06765
699.229	0.06649
686.872	0.06981
674.514	0.07467
662.157	0.07199
649.799	0.12081
637.442	0.13578
625.084	0.14886
612.727	0.11873
600.369	0.15361
588.012	0.19222
575.654	0.19876
563.297	0.16110
550.939	0.12218
538.582	0.15760
526.224	0.14883
513.867	0.11265
501.509	0.09056
489.151	0.11734
476.794	0.08821
464.436	0.08224
452.079	0.13533
439.721	0.14374
427.364	0.16260
415.006	0.13458
402.649	0.14144
399.56	0.13834