File: FTIR/2023_06_07_CBD_powder.dpt
3998.68	0.02431
3986.33	0.02391
3973.97	0.02447
3961.61	0.02372
3949.25	0.02447
3936.9	0.02413
3924.54	0.02449
3912.18	0.02425
3899.82	0.02361
3887.47	0.02372
3875.11	0.02387
3862.75	0.02306
3850.39	0.02397
3838.04	0.02360
3825.68	0.02305
3813.32	0.02352
3800.96	0.02287
3788.61	0.02281
3776.25	0.02236
3763.89	0.02304
3751.53	0.02353
3739.18	0.02230
3726.82	0.02165
3714.46	0.02261
3702.1	0.02219
3689.75	0.02163
3677.39	0.02205
3665.03	0.02175
3652.67	0.02134
3640.32	0.02178
3627.96	0.02149
3615.6	0.02122
3603.24	0.02152
3590.89	0.02153
3578.53	0.02227
3566.17	0.02218
3553.81	0.02388
3541.46	0.02899
3529.1	0.04915
3516.74	0.08613
3504.38	0.05332
3492.03	0.04734
3479.67	0.05128
3467.31	0.06064
3454.95	0.07335
3442.6	0.08635
3430.24	0.09774
3417.88	0.11361
3405.52	0.12969
3393.17	0.09936
3380.81	0.07202
3368.45	0.05763
3356.09	0.04851
3343.74	0.04271
3331.38	0.03863
3319.02	0.03572
3306.66	0.03348
3294.31	0.03113
3281.95	0.02968
3269.59	0.02833
3257.23	0.02806
3244.88	0.02723
3232.52	0.02711
3220.16	0.02666
3207.8	0.02643
3195.45	0.02668
3183.09	0.02582
3170.73	0.02556
3158.37	0.02536
3146.02	0.02512
3133.66	0.02591
3121.3	0.02538
3108.94	0.02587
3096.59	0.02560
3084.23	0.02647
3071.87	0.03830
3059.51	0.02712
3047.16	0.02682
3034.8	0.02923
3022.44	0.02752
3010.08	0.02776
2997.73	0.03013
2985.37	0.03453
2973.01	0.05472
2960.65	0.07902
2948.3	0.06278
2935.94	0.09743
2923.58	0.13959
2911.22	0.12474
2898.87	0.09058
2886.51	0.06934
2874.15	0.07335
2861.79	0.07943
2849.44	0.08792
2837.08	0.05206
2824.72	0.05937
2812.36	0.03922
2800.01	0.03473
2787.65	0.03285
2775.29	0.03104
2762.93	0.03034
2750.58	0.02926
2738.22	0.02977
2725.86	0.03178
2713.5	0.02923
2701.15	0.02848
2688.79	0.02836
2676.43	0.02872
2664.07	0.02883
2651.72	0.02834
2639.36	0.02752
2627	0.02736
2614.64	0.02680
2602.29	0.02673
2589.93	0.02636
2577.57	0.02608
2565.21	0.02574
2552.86	0.02559
2540.5	0.02557
2528.14	0.02589
2515.78	0.02519
2503.43	0.02585
2491.07	0.02627
2478.71	0.02562
2466.35	0.02554
2454	0.02609
2441.64	0.02500
2429.28	0.02416
2416.92	0.02429
2404.57	0.02366
2392.21	0.02428
2379.85	0.02490
2367.49	0.02464
2355.14	0.02528
2342.78	0.02470
2330.42	0.02418
2318.06	0.02428
2305.71	0.02372
2293.35	0.02395
2280.99	0.02298
2268.63	0.02270
2256.28	0.02165
2243.92	0.02162
2231.56	0.02074
2219.2	0.02086
2206.85	0.02095
2194.49	0.01985
2182.13	0.01828
2169.77	0.01930
2157.42	0.01578
2145.06	0.01850
2132.7	0.01840
2120.34	0.01949
2107.99	0.02130
2095.63	0.01947
2083.27	0.02106
2070.91	0.01903
2058.56	0.01886
2046.2	0.01921
2033.84	0.01780
2021.48	0.01732
2009.13	0.01773
1996.77	0.01718
1984.41	0.01777
1972.05	0.01624
1959.7	0.01693
1947.34	0.01795
1934.98	0.01872
1922.62	0.01925
1910.27	0.02011
1897.91	0.01989
1885.55	0.01992
1873.19	0.02023
1860.84	0.02021
1848.48	0.02030
1836.12	0.02074
1823.76	0.02098
1811.41	0.02136
1799.05	0.02260
1786.69	0.02178
1774.33	0.02268
1761.98	0.02183
1749.62	0.02116
1737.26	0.02141
1724.9	0.02150
1712.55	0.02205
1700.19	0.02199
1687.83	0.02262
1675.47	0.02282
1663.12	0.02628
1650.76	0.03222
1638.4	0.06047
1626.04	0.11959
1613.68	0.06961
1601.33	0.04306
1588.97	0.09485
1576.61	0.13266
1564.25	0.05027
1551.9	0.03603
1539.54	0.03060
1527.18	0.03094
1514.82	0.05382
1502.47	0.03826
1490.11	0.02963
1477.75	0.02894
1465.39	0.06330
1453.04	0.09321
1440.68	0.19278
1428.32	0.12380
1415.96	0.04708
1403.61	0.03760
1391.25	0.03381
1378.89	0.06281
1366.53	0.06320
1354.18	0.04654
1341.82	0.05619
1329.46	0.05599
1317.1	0.05776
1304.75	0.08418
1292.39	0.07770
1280.03	0.09193
1267.67	0.05621
1255.32	0.03741
1242.96	0.05539
1230.6	0.09188
1218.24	0.19146
1205.89	0.16153
1193.53	0.07213
1181.17	0.08555
1168.81	0.08568
1156.46	0.05032
1144.1	0.05344
1131.74	0.04670
1119.38	0.03494
1107.03	0.04088
1094.67	0.04791
1082.31	0.04784
1069.95	0.03993
1057.6	0.05153
1045.24	0.07312
1032.88	0.12298
1020.52	0.14402
1008.17	0.09273
995.809	0.07856
983.452	0.07356
971.094	0.05379
958.737	0.07723
946.379	0.04140
934.022	0.03808
921.664	0.04001
909.307	0.04525
896.949	0.15686
884.592	0.16603
872.234	0.08240
859.877	0.11058
847.519	0.11467
835.162	0.09570
822.804	0.10174
810.447	0.05562
798.089	0.06610
785.732	0.05512
773.374	0.04673
761.017	0.03871
748.659	0.05798
736.302	0.04012
723.944	0.04437
711.587	0.03682
699.229	0.03200
686.872	0.03247
674.514	0.03794
662.157	0.05453
649.799	0.05872
637.442	0.04416
625.084	0.05300
612.727	0.05391
600.369	0.06446
588.012	0.09074
575.654	0.06709
563.297	0.07560
550.939	0.08161
538.582	0.10410
526.224	0.11896
513.867	0.09391
501.509	0.13453
489.151	0.15677
476.794	0.13473
464.436	0.15333
452.079	0.15030
439.721	0.12258
427.364	0.14180
415.006	0.14256
402.649	0.18304
399.56	0.19127