File: FTIR/2023_06_07_CBN_powder.dpt
3998.68	0.04412
3986.33	0.04344
3973.97	0.04379
3961.61	0.04367
3949.25	0.04355
3936.9	0.04306
3924.54	0.04329
3912.18	0.04303
3899.82	0.04343
3887.47	0.04281
3875.11	0.04248
3862.75	0.04244
3850.39	0.04278
3838.04	0.04282
3825.68	0.04230
3813.32	0.04230
3800.96	0.04222
3788.61	0.04159
3776.25	0.04168
3763.89	0.04137
3751.53	0.04178
3739.18	0.04052
3726.82	0.03982
3714.46	0.04022
3702.1	0.03946
3689.75	0.04053
3677.39	0.04010
3665.03	0.03981
3652.67	0.04059
3640.32	0.04019
3627.96	0.03966
3615.6	0.03934
3603.24	0.03993
3590.89	0.03942
3578.53	0.04015
3566.17	0.03995
3553.81	0.04018
3541.46	0.04099
3529.1	0.04147
3516.74	0.04277
3504.38	0.04421
3492.03	0.04545
3479.67	0.04776
3467.31	0.05157
3454.95	0.05564
3442.6	0.06089
3430.24	0.06766
3417.88	0.07631
3405.52	0.08379
3393.17	0.08511
3380.81	0.08088
3368.45	0.07594
3356.09	0.07190
3343.74	0.06964
3331.38	0.06880
3319.02	0.06913
3306.66	0.07085
3294.31	0.07349
3281.95	0.07662
3269.59	0.07999
3257.23	0.08347
3244.88	0.08629
3232.52	0.08902
3220.16	0.08925
3207.8	0.08785
3195.45	0.08443
3183.09	0.08013
3170.73	0.07481
3158.37	0.07050
3146.02	0.06621
3133.66	0.06222
3121.3	0.05989
3108.94	0.05654
3096.59	0.05429
3084.23	0.05375
3071.87	0.05278
3059.51	0.05205
3047.16	0.05188
3034.8	0.05322
3022.44	0.05046
3010.08	0.04820
2997.73	0.05399
2985.37	0.06322
2973.01	0.08497
2960.65	0.11222
2948.3	0.08619
2935.94	0.11289
2923.58	0.17159
2911.22	0.12688
2898.87	0.09987
2886.51	0.08408
2874.15	0.09225
2861.79	0.10278
2849.44	0.13336
2837.08	0.08277
2824.72	0.06918
2812.36	0.06355
2800.01	0.05965
2787.65	0.05713
2775.29	0.05517
2762.93	0.05436
2750.58	0.05359
2738.22	0.05445
2725.86	0.05552
2713.5	0.05361
2701.15	0.05336
2688.79	0.05224
2676.43	0.05143
2664.07	0.05204
2651.72	0.05233
2639.36	0.05124
2627	0.05018
2614.64	0.04882
2602.29	0.04843
2589.93	0.04890
2577.57	0.04798
2565.21	0.04814
2552.86	0.04655
2540.5	0.04624
2528.14	0.04612
2515.78	0.04605
2503.43	0.04511
2491.07	0.04475
2478.71	0.04421
2466.35	0.04356
2454	0.04389
2441.64	0.04314
2429.28	0.04368
2416.92	0.04322
2404.57	0.04333
2392.21	0.04286
2379.85	0.04309
2367.49	0.04303
2355.14	0.04348
2342.78	0.04387
2330.42	0.04328
2318.06	0.04285
2305.71	0.04179
2293.35	0.04112
2280.99	0.04016
2268.63	0.03919
2256.28	0.03684
2243.92	0.03757
2231.56	0.03604
2219.2	0.03576
2206.85	0.03401
2194.49	0.03529
2182.13	0.03211
2169.77	0.03294
2157.42	0.02713
2145.06	0.03070
2132.7	0.03266
2120.34	0.03494
2107.99	0.03597
2095.63	0.03394
2083.27	0.03514
2070.91	0.03327
2058.56	0.03318
2046.2	0.03153
2033.84	0.02775
2021.48	0.02918
2009.13	0.02817
1996.77	0.02866
1984.41	0.03034
1972.05	0.02933
1959.7	0.02836
1947.34	0.03063
1934.98	0.03305
1922.62	0.03321
1910.27	0.03622
1897.91	0.03468
1885.55	0.03434
1873.19	0.03347
1860.84	0.03461
1848.48	0.03508
1836.12	0.03468
1823.76	0.03435
1811.41	0.03451
1799.05	0.03474
1786.69	0.03452
1774.33	0.03590
1761.98	0.03483
1749.62	0.03382
1737.26	0.03348
1724.9	0.03434
1712.55	0.03554
1700.19	0.03430
1687.83	0.03460
1675.47	0.03309
1663.12	0.03251
1650.76	0.03229
1638.4	0.03930
1626.04	0.12452
1613.68	0.13724
1601.33	0.10084
1588.97	0.11359
1576.61	0.14138
1564.25	0.09509
1551.9	0.05958
1539.54	0.05098
1527.18	0.04715
1514.82	0.05716
1502.47	0.06371
1490.11	0.08292
1477.75	0.05298
1465.39	0.11072
1453.04	0.09441
1440.68	0.11977
1428.32	0.16029
1415.96	0.11817
1403.61	0.16626
1391.25	0.13607
1378.89	0.12445
1366.53	0.12123
1354.18	0.13307
1341.82	0.12115
1329.46	0.10878
1317.1	0.08830
1304.75	0.10860
1292.39	0.12676
1280.03	0.14049
1267.67	0.07795
1255.32	0.06598
1242.96	0.10629
1230.6	0.15312
1218.24	0.10714
1205.89	0.08880
1193.53	0.17833
1181.17	0.08721
1168.81	0.06761
1156.46	0.14207
1144.1	0.07347
1131.74	0.14044
1119.38	0.12689
1107.03	0.08714
1094.67	0.11345
1082.31	0.06391
1069.95	0.06742
1057.6	0.16096
1045.24	0.24704
1032.88	0.14996
1020.52	0.17931
1008.17	0.10810
995.809	0.12571
983.452	0.08283
971.094	0.07659
958.737	0.07478
946.379	0.06427
934.022	0.07488
921.664	0.09032
909.307	0.05390
896.949	0.08718
884.592	0.06021
872.234	0.15105
859.877	0.09963
847.519	0.16937
835.162	0.15348
822.804	0.10365
810.447	0.12974
798.089	0.06928
785.732	0.05933
773.374	0.08723
761.017	0.06776
748.659	0.05852
736.302	0.11130
723.944	0.09537
711.587	0.10218
699.229	0.10031
686.872	0.11554
674.514	0.11201
662.157	0.12304
649.799	0.09016
637.442	0.08146
625.084	0.08946
612.727	0.08343
600.369	0.14621
588.012	0.12952
575.654	0.16310
563.297	0.12000
550.939	0.12349
538.582	0.13171
526.224	0.13357
513.867	0.09121
501.509	0.08765
489.151	0.09055
476.794	0.07067
464.436	0.06356
452.079	0.06350
439.721	0.06419
427.364	0.05523
415.006	0.05438
402.649	0.05814
399.56	0.05380