File: FTIR/crystalline_CBD_2022-10-07T14-17-41_BKG.txt
DATATYPE	 IR Spectrum
XYUNITS	 Wavenumber;Arbitrary
DECIMALSYMBOL	 .
649.955	 2.11168e+06
661.137	 2.95492e+06
672.319	 3.80918e+06
683.501	 4.56905e+06
694.683	 5.47682e+06
705.865	 6.37405e+06
717.047	 7.23724e+06
728.229	 8.0954e+06
739.411	 8.97726e+06
750.593	 9.91426e+06
761.775	 1.10075e+07
772.957	 1.21451e+07
784.139	 1.30878e+07
795.321	 1.40314e+07
806.503	 1.51084e+07
817.685	 1.6222e+07
828.867	 1.73589e+07
840.049	 1.82875e+07
851.231	 1.93965e+07
862.413	 2.07418e+07
873.595	 2.21436e+07
884.777	 2.36736e+07
895.959	 2.51242e+07
907.141	 2.65483e+07
918.323	 2.79594e+07
929.505	 2.9278e+07
940.687	 3.05422e+07
951.869	 3.17495e+07
963.051	 3.29949e+07
974.233	 3.43125e+07
985.415	 3.55128e+07
996.597	 3.6603e+07
1007.78	 3.74275e+07
1018.96	 3.81247e+07
1030.14	 3.87281e+07
1041.33	 3.88936e+07
1052.51	 3.88189e+07
1063.69	 3.87659e+07
1074.87	 3.87708e+07
1086.05	 3.94879e+07
1097.24	 4.07722e+07
1108.42	 4.22046e+07
1119.6	 4.34428e+07
1130.78	 4.44414e+07
1141.96	 4.5284e+07
1153.15	 4.59211e+07
1164.33	 4.63189e+07
1175.51	 4.6583e+07
1186.69	 4.69923e+07
1197.87	 4.72126e+07
1209.06	 4.71754e+07
1220.24	 4.72416e+07
1231.42	 4.7133e+07
1242.6	 4.6627e+07
1253.78	 4.5486e+07
1264.97	 4.49258e+07
1276.15	 4.49678e+07
1287.33	 4.41272e+07
1298.51	 4.38614e+07
1309.69	 4.29758e+07
1320.88	 4.18395e+07
1332.06	 4.16522e+07
1343.24	 4.12854e+07
1354.42	 4.01741e+07
1365.6	 3.99254e+07
1376.79	 3.87568e+07
1387.97	 3.3904e+07
1399.15	 3.24618e+07
1410.33	 3.66993e+07
1421.51	 3.49394e+07
1432.7	 3.39242e+07
1443.88	 3.48032e+07
1455.06	 2.68207e+07
1466.24	 3.16448e+07
1477.42	 3.19331e+07
1488.61	 2.80403e+07
1499.79	 2.95244e+07
1510.97	 2.88913e+07
1522.15	 1.99457e+07
1533.33	 2.30394e+07
1544.52	 2.42958e+07
1555.7	 2.25288e+07
1566.88	 2.80205e+07
1578.06	 2.65482e+07
1589.24	 2.74408e+07
1600.43	 2.53831e+07
1611.61	 2.17798e+07
1622.79	 1.65663e+07
1633.97	 1.64294e+07
1645.15	 1.70509e+07
1656.34	 2.23271e+07
1667.52	 2.20239e+07
1678.7	 2.38107e+07
1689.88	 2.33498e+07
1701.06	 1.38572e+07
1712.25	 2.36981e+07
1723.43	 2.41501e+07
1734.61	 1.49e+07
1745.79	 2.17639e+07
1756.97	 2.04141e+07
1768.16	 1.88015e+07
1779.34	 2.05497e+07
1790.52	 1.82183e+07
1801.7	 1.82448e+07
1812.88	 1.77789e+07
1824.07	 1.47524e+07
1835.25	 1.44366e+07
1846.43	 1.27015e+07
1857.61	 1.20714e+07
1868.79	 9.52141e+06
1879.98	 1.00815e+07
1891.16	 8.85576e+06
1902.34	 8.1864e+06
1913.52	 7.27217e+06
1924.7	 6.28737e+06
1935.89	 5.28048e+06
1947.07	 4.29403e+06
1958.25	 3.40059e+06
1969.43	 2.70649e+06
1980.61	 2.69792e+06
1991.8	 2.93893e+06
2002.98	 2.7913e+06
2014.16	 2.43206e+06
2025.34	 2.3148e+06
2036.52	 2.44481e+06
2047.71	 3.03127e+06
2058.89	 3.95834e+06
2070.07	 4.40991e+06
2081.25	 5.01351e+06
2092.43	 5.19745e+06
2103.62	 5.19798e+06
2114.8	 5.37908e+06
2125.98	 4.80814e+06
2137.16	 3.41862e+06
2148.34	 2.57597e+06
2159.53	 1.75737e+06
2170.71	 2.34517e+06
2181.89	 2.45149e+06
2193.07	 2.81368e+06
2204.25	 3.10354e+06
2215.44	 3.36241e+06
2226.62	 3.69394e+06
2237.8	 4.11606e+06
2248.98	 4.57011e+06
2260.16	 5.0877e+06
2271.35	 5.80943e+06
2282.53	 7.06811e+06
2293.71	 8.7122e+06
2304.89	 9.60474e+06
2316.07	 9.77079e+06
2327.26	 1.04484e+07
2338.44	 9.59624e+06
2349.62	 1.16026e+07
2360.8	 7.53588e+06
2371.98	 8.89789e+06
2383.17	 1.12368e+07
2394.35	 1.06177e+07
2405.53	 9.78646e+06
2416.71	 9.29571e+06
2427.89	 8.89499e+06
2439.08	 8.64696e+06
2450.26	 8.59482e+06
2461.44	 8.61179e+06
2472.62	 8.45177e+06
2483.8	 8.28029e+06
2494.99	 8.17417e+06
2506.17	 8.087e+06
2517.35	 8.0076e+06
2528.53	 7.97642e+06
2539.71	 7.99832e+06
2550.9	 8.08628e+06
2562.08	 8.25216e+06
2573.26	 8.51784e+06
2584.44	 8.90605e+06
2595.62	 9.43317e+06
2606.81	 1.01405e+07
2617.99	 1.10653e+07
2629.17	 1.22337e+07
2640.35	 1.36498e+07
2651.53	 1.5184e+07
2662.72	 1.63003e+07
2673.9	 1.63042e+07
2685.08	 1.61605e+07
2696.26	 1.59839e+07
2707.45	 1.58119e+07
2718.63	 1.56334e+07
2729.81	 1.54773e+07
2740.99	 1.52983e+07
2752.17	 1.51515e+07
2763.36	 1.49626e+07
2774.54	 1.47867e+07
2785.72	 1.46036e+07
2796.9	 1.4433e+07
2808.08	 1.4238e+07
2819.27	 1.40508e+07
2830.45	 1.38233e+07
2841.63	 1.3576e+07
2852.81	 1.31366e+07
2863.99	 1.30708e+07
2875.18	 1.29647e+07
2886.36	 1.27346e+07
2897.54	 1.24875e+07
2908.72	 1.21163e+07
2919.9	 1.17115e+07
2931.09	 1.1563e+07
2942.27	 1.15164e+07
2953.45	 1.13761e+07
2964.63	 1.11681e+07
2975.81	 1.10978e+07
2987	 1.09846e+07
2998.18	 1.08397e+07
3009.36	 1.05753e+07
3020.54	 1.04479e+07
3031.72	 1.01247e+07
3042.91	 1.00089e+07
3054.09	 9.78014e+06
3065.27	 9.49988e+06
3076.45	 9.32283e+06
3087.63	 9.15995e+06
3098.82	 8.89507e+06
3110	 8.70571e+06
3121.18	 8.51506e+06
3132.36	 8.26883e+06
3143.54	 8.06984e+06
3154.73	 7.8794e+06
3165.91	 7.63001e+06
3177.09	 7.39603e+06
3188.27	 7.20722e+06
3199.45	 6.98838e+06
3210.64	 6.80518e+06
3221.82	 6.67664e+06
3233	 6.55804e+06
3244.18	 6.44202e+06
3255.36	 6.34201e+06
3266.55	 6.25735e+06
3277.73	 6.15055e+06
3288.91	 6.01897e+06
3300.09	 5.89831e+06
3311.27	 5.75419e+06
3322.46	 5.57316e+06
3333.64	 5.40184e+06
3344.82	 5.25276e+06
3356	 5.05111e+06
3367.18	 4.86158e+06
3378.37	 4.73627e+06
3389.55	 4.5508e+06
3400.73	 4.43106e+06
3411.91	 4.27966e+06
3423.09	 4.10593e+06
3434.28	 4.0148e+06
3445.46	 3.86621e+06
3456.64	 3.79561e+06
3467.82	 3.70455e+06
3479	 3.62277e+06
3490.19	 3.55763e+06
3501.37	 3.46677e+06
3512.55	 3.47851e+06
3523.73	 3.35085e+06
3534.91	 3.50001e+06
3546.1	 3.34405e+06
3557.28	 3.60055e+06
3568.46	 3.16053e+06
3579.64	 3.78406e+06
3590.82	 3.7518e+06
3602.01	 3.98649e+06
3613.19	 3.83451e+06
3624.37	 4.49313e+06
3635.55	 4.74739e+06
3646.73	 4.24213e+06
3657.92	 4.68138e+06
3669.1	 4.31108e+06
3680.28	 4.92367e+06
3691.46	 4.58572e+06
3702.64	 4.85931e+06
3713.83	 4.58013e+06
3725.01	 5.02002e+06
3736.19	 3.89571e+06
3747.37	 4.45429e+06
3758.55	 5.33656e+06
3769.74	 5.57888e+06
3780.92	 5.62249e+06
3792.1	 6.13137e+06
3803.28	 4.77939e+06
3814.46	 5.63823e+06
3825.65	 5.83067e+06
3836.83	 4.90604e+06
3848.01	 5.81897e+06
3859.19	 5.70739e+06
3870.37	 4.77203e+06
3881.56	 5.08814e+06
3892.74	 5.23777e+06
3903.92	 5.07614e+06
3915.1	 5.99561e+06
3926.28	 5.74883e+06
3937.47	 6.06806e+06
3948.65	 5.8096e+06
3959.83	 5.97873e+06
3971.01	 5.9252e+06
3982.19	 5.89904e+06
3993.38	 5.83912e+06
3999.9	 5.82033e+06