File: FTIR/db-LASE IR data/AgNPr-LASE lasered at 45C/Silk AgNPr film 45C 2 8.26.22.dpt
3997.65	-0.00239
3985.3	-0.00237
3972.94	-0.00174
3960.58	-0.00223
3948.22	-0.00348
3935.87	-0.00287
3923.51	-0.00281
3911.15	-0.00164
3898.79	-0.00201
3886.44	-0.00190
3874.08	-0.00174
3861.72	-0.00144
3849.36	-0.00117
3837.01	-0.00370
3824.65	-0.00229
3812.29	-0.00295
3799.93	-0.00258
3787.58	-0.00163
3775.22	-0.00108
3762.86	-0.00173
3750.5	-0.00077
3738.15	0.00130
3725.79	-0.00076
3713.43	0.00013
3701.07	-0.00111
3688.72	0.00147
3676.36	0.00078
3664	0.00392
3651.64	0.00878
3639.29	0.01112
3626.93	0.01860
3614.57	0.02281
3602.21	0.02906
3589.86	0.03450
3577.5	0.03999
3565.14	0.04787
3552.78	0.05561
3540.43	0.06177
3528.07	0.06756
3515.71	0.07373
3503.35	0.07930
3491	0.08370
3478.64	0.08811
3466.28	0.09212
3453.92	0.09483
3441.57	0.09734
3429.21	0.10142
3416.85	0.10668
3404.49	0.11240
3392.14	0.11966
3379.78	0.12596
3367.42	0.13202
3355.06	0.14307
3342.71	0.15105
3330.35	0.16082
3317.99	0.17178
3305.63	0.18299
3293.28	0.19129
3280.92	0.19348
3268.56	0.19261
3256.2	0.18531
3243.85	0.17706
3231.49	0.16723
3219.13	0.15680
3206.77	0.14658
3194.42	0.13489
3182.06	0.12292
3169.7	0.10958
3157.34	0.09755
3144.99	0.08813
3132.63	0.08256
3120.27	0.07994
3107.91	0.08054
3095.56	0.08344
3083.2	0.08830
3070.84	0.08895
3058.48	0.08573
3046.13	0.07766
3033.77	0.06898
3021.41	0.06056
3009.05	0.05463
2996.7	0.05457
2984.34	0.05988
2971.98	0.05815
2959.62	0.05638
2947.27	0.06006
2934.91	0.06542
2922.55	0.04983
2910.19	0.03724
2897.84	0.03748
2885.48	0.03612
2873.12	0.03571
2860.76	0.03090
2848.41	0.01815
2836.05	0.02603
2823.69	0.02568
2811.33	0.02451
2798.98	0.02295
2786.62	0.02074
2774.26	0.01845
2761.9	0.01653
2749.55	0.01491
2737.19	0.01378
2724.83	0.01328
2712.47	0.01129
2700.12	0.01118
2687.76	0.01094
2675.4	0.01080
2663.04	0.01044
2650.69	0.01054
2638.33	0.00973
2625.97	0.00954
2613.61	0.00890
2601.26	0.00751
2588.9	0.00788
2576.54	0.00695
2564.18	0.00568
2551.83	0.00606
2539.47	0.00559
2527.11	0.00560
2514.75	0.00539
2502.4	0.00414
2490.04	0.00477
2477.68	0.00416
2465.32	0.00460
2452.97	0.00438
2440.61	0.00415
2428.25	0.00433
2415.89	0.00337
2403.54	0.00362
2391.18	0.00373
2378.82	0.00430
2366.46	0.00819
2354.11	0.00784
2341.75	0.00706
2329.39	0.00696
2317.03	0.00720
2304.68	0.00620
2292.32	0.00483
2279.96	0.00491
2267.6	0.00526
2255.25	0.00387
2242.89	0.00472
2230.53	0.00384
2218.17	0.00486
2205.82	0.00425
2193.46	0.00365
2181.1	0.00632
2168.74	0.00478
2156.39	0.00353
2144.03	0.00321
2131.67	0.00353
2119.31	0.00552
2106.96	0.00541
2094.6	0.00488
2082.24	0.00500
2069.88	0.00484
2057.53	0.00450
2045.17	0.00472
2032.81	0.00372
2020.45	0.00449
2008.1	0.00243
1995.74	0.00363
1983.38	0.00362
1971.02	0.00312
1958.67	0.00263
1946.31	0.00276
1933.95	0.00353
1921.59	0.00278
1909.24	0.00341
1896.88	0.00284
1884.52	0.00337
1872.16	0.00353
1859.81	0.00385
1847.45	0.00355
1835.09	0.00398
1822.73	0.00486
1810.38	0.00460
1798.02	0.00554
1785.66	0.00630
1773.3	0.00703
1760.95	0.00812
1748.59	0.00962
1736.23	0.01111
1723.87	0.01481
1711.52	0.02614
1699.16	0.05981
1686.8	0.10473
1674.44	0.15669
1662.09	0.21229
1649.73	0.26155
1637.37	0.27794
1625.01	0.24807
1612.66	0.18062
1600.3	0.12208
1587.94	0.10451
1575.58	0.11916
1563.23	0.15756
1550.87	0.20774
1538.51	0.24203
1526.15	0.25524
1513.8	0.26813
1501.44	0.22325
1489.08	0.15638
1476.72	0.11540
1464.37	0.11097
1452.01	0.12717
1439.65	0.10833
1427.29	0.09582
1414.94	0.11339
1402.58	0.11109
1390.22	0.10906
1377.86	0.11206
1365.5	0.09457
1353.15	0.08160
1340.79	0.09280
1328.43	0.09496
1316.07	0.08454
1303.72	0.08837
1291.36	0.09449
1279	0.10048
1266.64	0.11419
1254.29	0.13053
1241.93	0.14969
1229.57	0.15166
1217.21	0.12108
1204.86	0.08834
1192.5	0.07098
1180.14	0.07169
1167.78	0.08046
1155.43	0.07432
1143.07	0.06428
1130.71	0.05998
1118.35	0.05980
1106	0.06065
1093.64	0.05756
1081.28	0.06725
1068.92	0.07519
1056.57	0.07742
1044.21	0.06816
1031.85	0.06086
1019.49	0.06334
1007.14	0.05959
994.78	0.04239
982.422	0.03617
970.065	0.03532
957.707	0.03827
945.35	0.04088
932.992	0.03804
920.635	0.03443
908.277	0.03157
895.92	0.03026
883.562	0.03100
871.205	0.03242
858.847	0.03781
846.49	0.04084
834.132	0.04505
821.774	0.04587
809.417	0.04846
797.059	0.05086
784.702	0.05429
772.344	0.05843
759.987	0.06315
747.629	0.06932
735.272	0.07484
722.914	0.07986
710.557	0.08522
698.199	0.09145
685.842	0.09653
673.484	0.10133
661.127	0.10472
648.769	0.10614
636.412	0.10688
624.054	0.10685
611.697	0.10802
599.339	0.10909
586.982	0.11123
574.624	0.11536
562.267	0.12060
549.909	0.12663
537.552	0.12818
525.194	0.12766
512.837	0.12814
500.479	0.12685
488.122	0.12543
475.764	0.12126
463.407	0.11784
451.049	0.11359
438.692	0.10995
426.334	0.10751
413.977	0.10549
401.619	0.10384
399.56	0.10257