File: FTIR/db-LASE IR data/AgNPr-LASE lasered at 45C/Silk AgNPr film 45C 2 9.22.22.dpt
3997.65	0.00317
3985.3	0.00171
3972.94	0.00181
3960.58	0.00279
3948.22	0.00030
3935.87	0.00126
3923.51	0.00214
3911.15	0.00088
3898.79	0.00058
3886.44	0.00064
3874.08	-0.00062
3861.72	0.00038
3849.36	0.00046
3837.01	0.00176
3824.65	0.00086
3812.29	0.00184
3799.93	0.00021
3787.58	0.00258
3775.22	0.00231
3762.86	0.00069
3750.5	0.00216
3738.15	0.00064
3725.79	0.00203
3713.43	0.00367
3701.07	0.00390
3688.72	0.00560
3676.36	0.00984
3664	0.01531
3651.64	0.02364
3639.29	0.03173
3626.93	0.04006
3614.57	0.05166
3602.21	0.06434
3589.86	0.07585
3577.5	0.08964
3565.14	0.10528
3552.78	0.11739
3540.43	0.13403
3528.07	0.14746
3515.71	0.15919
3503.35	0.17056
3491	0.17953
3478.64	0.18768
3466.28	0.19614
3453.92	0.20265
3441.57	0.20977
3429.21	0.21704
3416.85	0.22796
3404.49	0.23903
3392.14	0.25092
3379.78	0.26389
3367.42	0.27817
3355.06	0.29347
3342.71	0.31102
3330.35	0.33267
3317.99	0.35167
3305.63	0.37303
3293.28	0.38842
3280.92	0.39585
3268.56	0.39642
3256.2	0.38514
3243.85	0.36617
3231.49	0.34966
3219.13	0.33122
3206.77	0.30946
3194.42	0.28466
3182.06	0.25841
3169.7	0.23086
3157.34	0.20586
3144.99	0.18562
3132.63	0.17076
3120.27	0.16542
3107.91	0.16560
3095.56	0.17070
3083.2	0.17931
3070.84	0.18370
3058.48	0.17694
3046.13	0.16187
3033.77	0.14163
3021.41	0.12376
3009.05	0.11190
2996.7	0.11147
2984.34	0.11801
2971.98	0.11503
2959.62	0.11007
2947.27	0.11708
2934.91	0.12560
2922.55	0.09474
2910.19	0.06943
2897.84	0.06983
2885.48	0.06947
2873.12	0.06849
2860.76	0.05835
2848.41	0.03174
2836.05	0.05020
2823.69	0.05073
2811.33	0.04887
2798.98	0.04460
2786.62	0.04067
2774.26	0.03662
2761.9	0.03249
2749.55	0.03031
2737.19	0.02656
2724.83	0.02540
2712.47	0.02394
2700.12	0.02198
2687.76	0.02166
2675.4	0.02065
2663.04	0.01959
2650.69	0.01930
2638.33	0.01907
2625.97	0.01870
2613.61	0.01692
2601.26	0.01591
2588.9	0.01473
2576.54	0.01358
2564.18	0.01236
2551.83	0.01151
2539.47	0.01128
2527.11	0.01092
2514.75	0.01134
2502.4	0.01094
2490.04	0.01058
2477.68	0.01049
2465.32	0.01033
2452.97	0.00941
2440.61	0.00861
2428.25	0.00900
2415.89	0.00832
2403.54	0.00794
2391.18	0.00821
2378.82	0.00759
2366.46	0.00722
2354.11	0.00825
2341.75	0.00787
2329.39	0.00863
2317.03	0.00946
2304.68	0.00968
2292.32	0.00953
2279.96	0.00925
2267.6	0.00987
2255.25	0.00801
2242.89	0.00881
2230.53	0.00919
2218.17	0.00828
2205.82	0.01029
2193.46	0.01084
2181.1	0.01035
2168.74	0.00995
2156.39	0.00443
2144.03	0.00564
2131.67	0.00678
2119.31	0.00987
2106.96	0.01053
2094.6	0.00995
2082.24	0.00951
2069.88	0.00913
2057.53	0.00951
2045.17	0.00576
2032.81	0.00559
2020.45	0.00567
2008.1	0.00652
1995.74	0.00587
1983.38	0.00599
1971.02	0.00571
1958.67	0.00677
1946.31	0.00503
1933.95	0.00540
1921.59	0.00599
1909.24	0.00692
1896.88	0.00604
1884.52	0.00680
1872.16	0.00690
1859.81	0.00678
1847.45	0.00662
1835.09	0.00764
1822.73	0.00849
1810.38	0.00888
1798.02	0.01006
1785.66	0.01138
1773.3	0.01209
1760.95	0.01371
1748.59	0.01626
1736.23	0.01866
1723.87	0.02421
1711.52	0.04417
1699.16	0.10222
1686.8	0.17951
1674.44	0.27070
1662.09	0.37051
1649.73	0.46523
1637.37	0.50342
1625.01	0.44470
1612.66	0.31325
1600.3	0.20849
1587.94	0.17740
1575.58	0.20291
1563.23	0.27435
1550.87	0.36584
1538.51	0.43092
1526.15	0.45710
1513.8	0.47855
1501.44	0.38394
1489.08	0.25819
1476.72	0.18930
1464.37	0.18270
1452.01	0.21153
1439.65	0.17752
1427.29	0.15720
1414.94	0.18796
1402.58	0.18384
1390.22	0.18023
1377.86	0.18559
1365.5	0.15430
1353.15	0.13268
1340.79	0.15189
1328.43	0.15413
1316.07	0.13674
1303.72	0.14403
1291.36	0.15405
1279	0.16464
1266.64	0.18862
1254.29	0.21710
1241.93	0.25028
1229.57	0.25115
1217.21	0.19279
1204.86	0.13756
1192.5	0.11018
1180.14	0.11245
1167.78	0.12658
1155.43	0.11640
1143.07	0.10053
1130.71	0.09461
1118.35	0.09623
1106	0.09882
1093.64	0.09465
1081.28	0.11026
1068.92	0.12196
1056.57	0.12341
1044.21	0.10659
1031.85	0.09391
1019.49	0.09944
1007.14	0.09361
994.78	0.06715
982.422	0.05740
970.065	0.05548
957.707	0.05957
945.35	0.06370
932.992	0.05819
920.635	0.05193
908.277	0.04781
895.92	0.04634
883.562	0.04722
871.205	0.05027
858.847	0.05819
846.49	0.06267
834.132	0.06838
821.774	0.06934
809.417	0.07302
797.059	0.07655
784.702	0.08145
772.344	0.08745
759.987	0.09489
747.629	0.10380
735.272	0.11160
722.914	0.11903
710.557	0.12689
698.199	0.13560
685.842	0.14288
673.484	0.14951
661.127	0.15452
648.769	0.15660
636.412	0.15749
624.054	0.15638
611.697	0.15713
599.339	0.15823
586.982	0.16165
574.624	0.16745
562.267	0.17570
549.909	0.18444
537.552	0.18737
525.194	0.18561
512.837	0.18405
500.479	0.18136
488.122	0.17885
475.764	0.17395
463.407	0.16682
451.049	0.15980
438.692	0.15424
426.334	0.14940
413.977	0.14734
401.619	0.14191
399.56	0.14126