File: FTIR/db-LASE IR data/AgNPr-LASE lasered at 45C/Silk AgNPr film 45C 9.22.22.dpt
3997.65	-0.00307
3985.3	-0.00293
3972.94	-0.00290
3960.58	-0.00233
3948.22	-0.00254
3935.87	-0.00257
3923.51	-0.00086
3911.15	-0.00229
3898.79	-0.00316
3886.44	-0.00339
3874.08	-0.00347
3861.72	-0.00305
3849.36	-0.00242
3837.01	-0.00054
3824.65	-0.00164
3812.29	-0.00270
3799.93	-0.00071
3787.58	-0.00143
3775.22	-0.00240
3762.86	-0.00212
3750.5	-0.00004
3738.15	-0.00206
3725.79	-0.00096
3713.43	-0.00018
3701.07	-0.00058
3688.72	0.00057
3676.36	0.00386
3664	0.00688
3651.64	0.01188
3639.29	0.01388
3626.93	0.02044
3614.57	0.02558
3602.21	0.03370
3589.86	0.04089
3577.5	0.04809
3565.14	0.05692
3552.78	0.06262
3540.43	0.07195
3528.07	0.07861
3515.71	0.08484
3503.35	0.09040
3491	0.09516
3478.64	0.09968
3466.28	0.10461
3453.92	0.10845
3441.57	0.11123
3429.21	0.11499
3416.85	0.12034
3404.49	0.12648
3392.14	0.13299
3379.78	0.14065
3367.42	0.14715
3355.06	0.15643
3342.71	0.16455
3330.35	0.17679
3317.99	0.18741
3305.63	0.19841
3293.28	0.20707
3280.92	0.21168
3268.56	0.21169
3256.2	0.20479
3243.85	0.19380
3231.49	0.18474
3219.13	0.17525
3206.77	0.16396
3194.42	0.15043
3182.06	0.13824
3169.7	0.12378
3157.34	0.11150
3144.99	0.10149
3132.63	0.09364
3120.27	0.09105
3107.91	0.09272
3095.56	0.09494
3083.2	0.09989
3070.84	0.10127
3058.48	0.09683
3046.13	0.08842
3033.77	0.07814
3021.41	0.06878
3009.05	0.06271
2996.7	0.06272
2984.34	0.06715
2971.98	0.06502
2959.62	0.06195
2947.27	0.06582
2934.91	0.07048
2922.55	0.05279
2910.19	0.03543
2897.84	0.03798
2885.48	0.03889
2873.12	0.03853
2860.76	0.03280
2848.41	0.01425
2836.05	0.02772
2823.69	0.02840
2811.33	0.02695
2798.98	0.02495
2786.62	0.02216
2774.26	0.02018
2761.9	0.01794
2749.55	0.01654
2737.19	0.01436
2724.83	0.01390
2712.47	0.01296
2700.12	0.01174
2687.76	0.01156
2675.4	0.01112
2663.04	0.01066
2650.69	0.01077
2638.33	0.01074
2625.97	0.01055
2613.61	0.00937
2601.26	0.00902
2588.9	0.00820
2576.54	0.00753
2564.18	0.00689
2551.83	0.00583
2539.47	0.00569
2527.11	0.00623
2514.75	0.00610
2502.4	0.00633
2490.04	0.00466
2477.68	0.00595
2465.32	0.00512
2452.97	0.00499
2440.61	0.00464
2428.25	0.00429
2415.89	0.00423
2403.54	0.00367
2391.18	0.00346
2378.82	0.00433
2366.46	0.00464
2354.11	0.00430
2341.75	0.00277
2329.39	0.01229
2317.03	-0.00248
2304.68	0.00224
2292.32	0.00528
2279.96	0.00516
2267.6	0.00586
2255.25	0.00430
2242.89	0.00503
2230.53	0.00554
2218.17	0.00528
2205.82	0.00681
2193.46	0.00649
2181.1	0.00707
2168.74	0.00715
2156.39	0.00072
2144.03	0.00358
2131.67	0.00183
2119.31	0.00534
2106.96	0.00613
2094.6	0.00471
2082.24	0.00515
2069.88	0.00427
2057.53	0.00464
2045.17	0.00290
2032.81	0.00283
2020.45	0.00359
2008.1	0.00407
1995.74	0.00316
1983.38	0.00479
1971.02	0.00288
1958.67	0.00283
1946.31	0.00264
1933.95	0.00299
1921.59	0.00307
1909.24	0.00353
1896.88	0.00330
1884.52	0.00399
1872.16	0.00388
1859.81	0.00397
1847.45	0.00404
1835.09	0.00441
1822.73	0.00439
1810.38	0.00497
1798.02	0.00558
1785.66	0.00599
1773.3	0.00694
1760.95	0.00783
1748.59	0.00941
1736.23	0.01072
1723.87	0.01357
1711.52	0.02433
1699.16	0.05689
1686.8	0.09809
1674.44	0.14515
1662.09	0.19505
1649.73	0.24016
1637.37	0.25616
1625.01	0.23539
1612.66	0.17795
1600.3	0.12263
1587.94	0.10414
1575.58	0.11663
1563.23	0.15209
1550.87	0.19627
1538.51	0.22503
1526.15	0.23786
1513.8	0.24847
1501.44	0.20902
1489.08	0.14913
1476.72	0.11291
1464.37	0.10813
1452.01	0.12317
1439.65	0.10511
1427.29	0.09353
1414.94	0.11049
1402.58	0.10785
1390.22	0.10641
1377.86	0.10884
1365.5	0.09191
1353.15	0.07961
1340.79	0.09109
1328.43	0.09304
1316.07	0.08278
1303.72	0.08571
1291.36	0.09076
1279	0.09676
1266.64	0.10962
1254.29	0.12413
1241.93	0.14178
1229.57	0.14243
1217.21	0.11366
1204.86	0.08410
1192.5	0.06812
1180.14	0.06895
1167.78	0.07678
1155.43	0.07089
1143.07	0.06147
1130.71	0.05706
1118.35	0.05682
1106	0.05771
1093.64	0.05463
1081.28	0.06429
1068.92	0.07130
1056.57	0.07389
1044.21	0.06437
1031.85	0.05729
1019.49	0.06045
1007.14	0.05630
994.78	0.04026
982.422	0.03455
970.065	0.03383
957.707	0.03659
945.35	0.03906
932.992	0.03627
920.635	0.03268
908.277	0.03025
895.92	0.02915
883.562	0.02978
871.205	0.03145
858.847	0.03677
846.49	0.03928
834.132	0.04352
821.774	0.04450
809.417	0.04684
797.059	0.04911
784.702	0.05194
772.344	0.05588
759.987	0.06013
747.629	0.06571
735.272	0.07047
722.914	0.07514
710.557	0.07985
698.199	0.08540
685.842	0.08982
673.484	0.09388
661.127	0.09637
648.769	0.09771
636.412	0.09783
624.054	0.09792
611.697	0.09794
599.339	0.09840
586.982	0.10009
574.624	0.10372
562.267	0.10811
549.909	0.11276
537.552	0.11409
525.194	0.11211
512.837	0.11234
500.479	0.11014
488.122	0.10915
475.764	0.10697
463.407	0.10296
451.049	0.09967
438.692	0.09660
426.334	0.09477
413.977	0.09290
401.619	0.09030
399.56	0.08991