File: FTIR/db-LASE IR data/AgNPr-LASE lasered at 45C/Silk AgNPr film 45C 8.26.22.dpt
3997.65	0.00915
3985.3	0.01016
3972.94	0.01089
3960.58	0.00972
3948.22	0.00884
3935.87	0.00847
3923.51	0.00826
3911.15	0.00873
3898.79	0.00906
3886.44	0.00930
3874.08	0.00834
3861.72	0.00915
3849.36	0.00919
3837.01	0.00688
3824.65	0.00772
3812.29	0.00676
3799.93	0.00693
3787.58	0.00828
3775.22	0.00814
3762.86	0.00775
3750.5	0.00837
3738.15	0.00961
3725.79	0.01042
3713.43	0.00884
3701.07	0.01025
3688.72	0.01181
3676.36	0.01496
3664	0.02302
3651.64	0.03261
3639.29	0.04236
3626.93	0.05587
3614.57	0.06983
3602.21	0.08313
3589.86	0.09984
3577.5	0.11521
3565.14	0.13529
3552.78	0.15242
3540.43	0.17035
3528.07	0.18611
3515.71	0.20230
3503.35	0.21607
3491	0.22835
3478.64	0.23841
3466.28	0.24623
3453.92	0.25487
3441.57	0.26300
3429.21	0.27371
3416.85	0.28733
3404.49	0.30346
3392.14	0.31997
3379.78	0.33823
3367.42	0.35846
3355.06	0.38318
3342.71	0.40892
3330.35	0.43803
3317.99	0.46965
3305.63	0.49922
3293.28	0.52247
3280.92	0.53122
3268.56	0.52854
3256.2	0.50655
3243.85	0.47835
3231.49	0.44874
3219.13	0.41980
3206.77	0.38911
3194.42	0.35540
3182.06	0.32085
3169.7	0.28540
3157.34	0.25378
3144.99	0.22927
3132.63	0.21341
3120.27	0.20693
3107.91	0.20753
3095.56	0.21640
3083.2	0.22849
3070.84	0.23131
3058.48	0.22231
3046.13	0.20055
3033.77	0.17576
3021.41	0.15408
3009.05	0.14030
2996.7	0.14095
2984.34	0.15256
2971.98	0.14910
2959.62	0.14941
2947.27	0.15704
2934.91	0.17479
2922.55	0.15918
2910.19	0.12482
2897.84	0.10678
2885.48	0.10098
2873.12	0.09826
2860.76	0.08643
2848.41	0.08355
2836.05	0.07300
2823.69	0.06953
2811.33	0.06640
2798.98	0.06098
2786.62	0.05548
2774.26	0.05003
2761.9	0.04476
2749.55	0.04142
2737.19	0.03806
2724.83	0.03564
2712.47	0.03288
2700.12	0.03200
2687.76	0.03058
2675.4	0.02989
2663.04	0.02882
2650.69	0.02775
2638.33	0.02659
2625.97	0.02575
2613.61	0.02475
2601.26	0.02315
2588.9	0.02209
2576.54	0.01954
2564.18	0.01805
2551.83	0.01683
2539.47	0.01687
2527.11	0.01635
2514.75	0.01668
2502.4	0.01505
2490.04	0.01563
2477.68	0.01449
2465.32	0.01410
2452.97	0.01309
2440.61	0.01396
2428.25	0.01351
2415.89	0.01225
2403.54	0.01183
2391.18	0.01268
2378.82	0.01367
2366.46	0.01667
2354.11	0.01484
2341.75	0.01327
2329.39	0.01955
2317.03	0.01012
2304.68	0.01290
2292.32	0.01390
2279.96	0.01312
2267.6	0.01399
2255.25	0.01093
2242.89	0.01256
2230.53	0.01208
2218.17	0.01134
2205.82	0.01319
2193.46	0.01171
2181.1	0.01200
2168.74	0.01135
2156.39	0.01061
2144.03	0.01018
2131.67	0.01218
2119.31	0.01351
2106.96	0.01523
2094.6	0.01351
2082.24	0.01360
2069.88	0.01194
2057.53	0.01035
2045.17	0.01046
2032.81	0.00719
2020.45	0.00915
2008.1	0.00865
1995.74	0.00974
1983.38	0.00919
1971.02	0.00667
1958.67	0.00746
1946.31	0.00794
1933.95	0.00899
1921.59	0.00795
1909.24	0.00907
1896.88	0.00929
1884.52	0.00973
1872.16	0.00952
1859.81	0.00995
1847.45	0.00942
1835.09	0.01081
1822.73	0.01172
1810.38	0.01255
1798.02	0.01342
1785.66	0.01504
1773.3	0.01665
1760.95	0.01863
1748.59	0.02101
1736.23	0.02487
1723.87	0.03173
1711.52	0.05460
1699.16	0.12653
1686.8	0.22617
1674.44	0.34848
1662.09	0.49475
1649.73	0.64893
1637.37	0.72129
1625.01	0.63450
1612.66	0.43623
1600.3	0.28341
1587.94	0.23952
1575.58	0.27517
1563.23	0.36683
1550.87	0.49795
1538.51	0.60827
1526.15	0.64360
1513.8	0.67781
1501.44	0.54045
1489.08	0.35828
1476.72	0.26190
1464.37	0.25367
1452.01	0.28999
1439.65	0.24251
1427.29	0.21279
1414.94	0.25395
1402.58	0.24552
1390.22	0.23938
1377.86	0.24767
1365.5	0.20557
1353.15	0.17563
1340.79	0.20231
1328.43	0.20728
1316.07	0.18168
1303.72	0.18968
1291.36	0.20325
1279	0.21713
1266.64	0.24878
1254.29	0.28594
1241.93	0.33075
1229.57	0.33462
1217.21	0.25909
1204.86	0.18474
1192.5	0.14643
1180.14	0.14828
1167.78	0.16610
1155.43	0.15237
1143.07	0.12978
1130.71	0.12063
1118.35	0.11973
1106	0.12012
1093.64	0.11252
1081.28	0.13256
1068.92	0.14802
1056.57	0.15188
1044.21	0.13202
1031.85	0.11680
1019.49	0.12307
1007.14	0.11471
994.78	0.07930
982.422	0.06618
970.065	0.06536
957.707	0.07155
945.35	0.07639
932.992	0.07044
920.635	0.06329
908.277	0.05789
895.92	0.05550
883.562	0.05659
871.205	0.05982
858.847	0.06956
846.49	0.07578
834.132	0.08352
821.774	0.08542
809.417	0.09001
797.059	0.09448
784.702	0.10010
772.344	0.10759
759.987	0.11565
747.629	0.12683
735.272	0.13685
722.914	0.14566
710.557	0.15512
698.199	0.16576
685.842	0.17462
673.484	0.18249
661.127	0.18814
648.769	0.19028
636.412	0.18996
624.054	0.18942
611.697	0.18890
599.339	0.18994
586.982	0.19293
574.624	0.19950
562.267	0.20848
549.909	0.21778
537.552	0.21992
525.194	0.21591
512.837	0.21502
500.479	0.21119
488.122	0.20761
475.764	0.19977
463.407	0.19180
451.049	0.18320
438.692	0.17551
426.334	0.16888
413.977	0.16374
401.619	0.15916
399.56	0.15901