File: FTIR/db-LASE IR data/AgNPr-LASE lasered at 85C/Silk AgNPr film 85C 2 9.22.22.dpt
3997.65	0.00917
3985.3	0.00921
3972.94	0.00992
3960.58	0.00882
3948.22	0.00997
3935.87	0.00974
3923.51	0.00911
3911.15	0.00939
3898.79	0.00966
3886.44	0.00891
3874.08	0.00835
3861.72	0.00910
3849.36	0.00836
3837.01	0.00635
3824.65	0.00899
3812.29	0.00819
3799.93	0.00748
3787.58	0.00832
3775.22	0.00883
3762.86	0.00862
3750.5	0.00714
3738.15	0.00988
3725.79	0.00970
3713.43	0.00976
3701.07	0.01030
3688.72	0.01145
3676.36	0.01279
3664	0.01408
3651.64	0.01855
3639.29	0.02156
3626.93	0.02585
3614.57	0.03191
3602.21	0.03502
3589.86	0.04386
3577.5	0.04834
3565.14	0.05589
3552.78	0.06191
3540.43	0.06708
3528.07	0.07245
3515.71	0.07725
3503.35	0.08209
3491	0.08660
3478.64	0.09023
3466.28	0.09315
3453.92	0.09580
3441.57	0.09944
3429.21	0.10212
3416.85	0.10612
3404.49	0.11187
3392.14	0.11652
3379.78	0.12141
3367.42	0.12702
3355.06	0.13345
3342.71	0.14260
3330.35	0.15493
3317.99	0.16900
3305.63	0.18772
3293.28	0.20761
3280.92	0.22153
3268.56	0.21715
3256.2	0.20179
3243.85	0.18495
3231.49	0.17284
3219.13	0.15965
3206.77	0.14885
3194.42	0.13721
3182.06	0.12460
3169.7	0.11274
3157.34	0.10178
3144.99	0.09257
3132.63	0.08720
3120.27	0.08443
3107.91	0.08567
3095.56	0.08900
3083.2	0.09232
3070.84	0.09296
3058.48	0.08921
3046.13	0.08017
3033.77	0.07176
3021.41	0.06406
3009.05	0.06003
2996.7	0.06045
2984.34	0.06426
2971.98	0.06333
2959.62	0.06148
2947.27	0.06233
2934.91	0.06691
2922.55	0.06102
2910.19	0.05151
2897.84	0.04713
2885.48	0.04522
2873.12	0.04469
2860.76	0.03948
2848.41	0.03671
2836.05	0.03366
2823.69	0.03311
2811.33	0.03172
2798.98	0.03045
2786.62	0.02859
2774.26	0.02660
2761.9	0.02527
2749.55	0.02312
2737.19	0.02199
2724.83	0.02097
2712.47	0.02031
2700.12	0.01943
2687.76	0.01835
2675.4	0.01772
2663.04	0.01815
2650.69	0.01777
2638.33	0.01731
2625.97	0.01698
2613.61	0.01633
2601.26	0.01535
2588.9	0.01428
2576.54	0.01414
2564.18	0.01250
2551.83	0.01249
2539.47	0.01215
2527.11	0.01187
2514.75	0.01110
2502.4	0.01130
2490.04	0.01155
2477.68	0.01087
2465.32	0.01126
2452.97	0.01069
2440.61	0.01089
2428.25	0.01013
2415.89	0.01016
2403.54	0.00997
2391.18	0.00979
2378.82	0.00968
2366.46	0.00936
2354.11	0.01075
2341.75	0.01056
2329.39	0.01126
2317.03	0.01125
2304.68	0.01021
2292.32	0.01049
2279.96	0.01004
2267.6	0.00826
2255.25	0.00923
2242.89	0.00803
2230.53	0.00764
2218.17	0.00843
2205.82	0.00749
2193.46	0.00880
2181.1	0.00601
2168.74	0.00961
2156.39	0.00353
2144.03	0.00410
2131.67	0.00524
2119.31	0.00775
2106.96	0.00832
2094.6	0.00751
2082.24	0.00832
2069.88	0.00750
2057.53	0.00775
2045.17	0.00682
2032.81	0.00734
2020.45	0.00283
2008.1	0.00446
1995.74	0.00525
1983.38	0.00787
1971.02	0.00372
1958.67	0.00473
1946.31	0.00588
1933.95	0.00544
1921.59	0.00638
1909.24	0.00524
1896.88	0.00601
1884.52	0.00662
1872.16	0.00618
1859.81	0.00640
1847.45	0.00646
1835.09	0.00677
1822.73	0.00692
1810.38	0.00746
1798.02	0.00825
1785.66	0.00802
1773.3	0.00898
1760.95	0.00913
1748.59	0.01031
1736.23	0.01145
1723.87	0.01367
1711.52	0.02345
1699.16	0.06066
1686.8	0.07712
1674.44	0.10275
1662.09	0.12934
1649.73	0.15281
1637.37	0.16570
1625.01	0.19064
1612.66	0.18056
1600.3	0.12062
1587.94	0.08999
1575.58	0.09121
1563.23	0.11208
1550.87	0.13810
1538.51	0.16261
1526.15	0.17885
1513.8	0.18926
1501.44	0.16803
1489.08	0.12833
1476.72	0.09906
1464.37	0.09233
1452.01	0.10596
1439.65	0.10554
1427.29	0.08826
1414.94	0.09120
1402.58	0.09106
1390.22	0.08713
1377.86	0.08564
1365.5	0.07919
1353.15	0.06917
1340.79	0.07180
1328.43	0.07050
1316.07	0.06546
1303.72	0.06544
1291.36	0.06651
1279	0.07079
1266.64	0.08281
1254.29	0.08923
1241.93	0.09745
1229.57	0.10337
1217.21	0.08980
1204.86	0.06895
1192.5	0.05545
1180.14	0.05422
1167.78	0.06135
1155.43	0.05814
1143.07	0.04917
1130.71	0.04511
1118.35	0.04378
1106	0.04461
1093.64	0.04424
1081.28	0.05140
1068.92	0.05764
1056.57	0.05656
1044.21	0.05141
1031.85	0.04607
1019.49	0.04426
1007.14	0.04463
994.78	0.04092
982.422	0.03587
970.065	0.03503
957.707	0.03233
945.35	0.03152
932.992	0.03022
920.635	0.02779
908.277	0.02545
895.92	0.02482
883.562	0.02455
871.205	0.02510
858.847	0.02727
846.49	0.02884
834.132	0.03036
821.774	0.03114
809.417	0.03155
797.059	0.03241
784.702	0.03450
772.344	0.03717
759.987	0.03994
747.629	0.04316
735.272	0.04744
722.914	0.05188
710.557	0.05529
698.199	0.05891
685.842	0.06087
673.484	0.06156
661.127	0.06241
648.769	0.06310
636.412	0.06404
624.054	0.06400
611.697	0.06431
599.339	0.06299
586.982	0.06232
574.624	0.06200
562.267	0.06419
549.909	0.06887
537.552	0.06847
525.194	0.06753
512.837	0.06545
500.479	0.06445
488.122	0.06292
475.764	0.06118
463.407	0.05932
451.049	0.05786
438.692	0.05650
426.334	0.05620
413.977	0.05578
401.619	0.05209
399.56	0.05216