File: FTIR/db-LASE IR data/AgNPr-LASE lasered at 85C/Silk AgNPr film 85C 9.22.22.dpt
3997.65	0.00878
3985.3	0.00807
3972.94	0.00805
3960.58	0.00829
3948.22	0.00849
3935.87	0.00834
3923.51	0.00757
3911.15	0.00825
3898.79	0.00760
3886.44	0.00737
3874.08	0.00683
3861.72	0.00756
3849.36	0.00624
3837.01	0.00495
3824.65	0.00746
3812.29	0.00656
3799.93	0.00601
3787.58	0.00724
3775.22	0.00780
3762.86	0.00718
3750.5	0.00795
3738.15	0.00961
3725.79	0.00966
3713.43	0.00796
3701.07	0.00905
3688.72	0.00940
3676.36	0.00975
3664	0.01402
3651.64	0.01983
3639.29	0.02377
3626.93	0.02881
3614.57	0.03731
3602.21	0.04192
3589.86	0.05218
3577.5	0.05953
3565.14	0.07013
3552.78	0.07687
3540.43	0.08518
3528.07	0.09256
3515.71	0.09922
3503.35	0.10574
3491	0.11123
3478.64	0.11592
3466.28	0.12041
3453.92	0.12361
3441.57	0.12765
3429.21	0.13248
3416.85	0.13894
3404.49	0.14705
3392.14	0.15485
3379.78	0.16321
3367.42	0.17386
3355.06	0.18435
3342.71	0.19632
3330.35	0.20913
3317.99	0.22323
3305.63	0.23506
3293.28	0.24522
3280.92	0.24901
3268.56	0.24601
3256.2	0.23729
3243.85	0.22333
3231.49	0.21108
3219.13	0.19791
3206.77	0.18441
3194.42	0.16924
3182.06	0.15268
3169.7	0.13724
3157.34	0.12354
3144.99	0.11201
3132.63	0.10483
3120.27	0.10233
3107.91	0.10340
3095.56	0.10716
3083.2	0.11295
3070.84	0.11388
3058.48	0.10973
3046.13	0.10008
3033.77	0.08852
3021.41	0.07810
3009.05	0.07233
2996.7	0.07303
2984.34	0.07775
2971.98	0.07559
2959.62	0.07488
2947.27	0.07818
2934.91	0.08469
2922.55	0.07365
2910.19	0.06068
2897.84	0.05475
2885.48	0.05255
2873.12	0.05024
2860.76	0.04398
2848.41	0.04116
2836.05	0.03909
2823.69	0.03805
2811.33	0.03630
2798.98	0.03412
2786.62	0.03087
2774.26	0.02843
2761.9	0.02611
2749.55	0.02396
2737.19	0.02215
2724.83	0.02090
2712.47	0.01992
2700.12	0.01954
2687.76	0.01864
2675.4	0.01781
2663.04	0.01769
2650.69	0.01756
2638.33	0.01706
2625.97	0.01644
2613.61	0.01569
2601.26	0.01492
2588.9	0.01358
2576.54	0.01254
2564.18	0.01254
2551.83	0.01099
2539.47	0.01074
2527.11	0.01113
2514.75	0.01093
2502.4	0.01089
2490.04	0.01010
2477.68	0.00948
2465.32	0.00970
2452.97	0.00930
2440.61	0.00884
2428.25	0.00852
2415.89	0.00883
2403.54	0.00844
2391.18	0.00883
2378.82	0.00881
2366.46	0.00926
2354.11	0.00919
2341.75	0.00906
2329.39	0.01177
2317.03	0.00864
2304.68	0.00846
2292.32	0.00919
2279.96	0.00960
2267.6	0.00737
2255.25	0.00812
2242.89	0.00752
2230.53	0.00719
2218.17	0.00751
2205.82	0.00863
2193.46	0.00902
2181.1	0.00660
2168.74	0.00841
2156.39	0.00306
2144.03	0.00561
2131.67	0.00641
2119.31	0.00804
2106.96	0.00881
2094.6	0.00790
2082.24	0.00847
2069.88	0.00699
2057.53	0.00773
2045.17	0.00704
2032.81	0.00429
2020.45	0.00254
2008.1	0.00500
1995.74	0.00547
1983.38	0.00881
1971.02	0.00488
1958.67	0.00404
1946.31	0.00608
1933.95	0.00518
1921.59	0.00573
1909.24	0.00540
1896.88	0.00588
1884.52	0.00626
1872.16	0.00591
1859.81	0.00609
1847.45	0.00600
1835.09	0.00681
1822.73	0.00680
1810.38	0.00732
1798.02	0.00809
1785.66	0.00848
1773.3	0.00944
1760.95	0.01051
1748.59	0.01163
1736.23	0.01358
1723.87	0.01710
1711.52	0.02942
1699.16	0.06901
1686.8	0.11822
1674.44	0.17534
1662.09	0.23672
1649.73	0.29034
1637.37	0.31282
1625.01	0.28391
1612.66	0.21025
1600.3	0.14354
1587.94	0.12100
1575.58	0.13535
1563.23	0.17587
1550.87	0.22882
1538.51	0.26796
1526.15	0.28397
1513.8	0.30011
1501.44	0.26174
1489.08	0.19274
1476.72	0.14234
1464.37	0.13361
1452.01	0.14970
1439.65	0.13111
1427.29	0.11502
1414.94	0.13143
1402.58	0.12759
1390.22	0.12471
1377.86	0.12927
1365.5	0.11143
1353.15	0.09678
1340.79	0.10894
1328.43	0.11215
1316.07	0.09932
1303.72	0.10260
1291.36	0.10887
1279	0.11568
1266.64	0.12993
1254.29	0.14613
1241.93	0.16622
1229.57	0.17152
1217.21	0.14413
1204.86	0.10906
1192.5	0.08708
1180.14	0.08564
1167.78	0.09464
1155.43	0.08935
1143.07	0.07753
1130.71	0.07122
1118.35	0.06954
1106	0.06922
1093.64	0.06514
1081.28	0.07500
1068.92	0.08376
1056.57	0.08607
1044.21	0.07697
1031.85	0.06894
1019.49	0.07156
1007.14	0.06953
994.78	0.05063
982.422	0.04250
970.065	0.04203
957.707	0.04484
945.35	0.04687
932.992	0.04346
920.635	0.03929
908.277	0.03582
895.92	0.03457
883.562	0.03433
871.205	0.03596
858.847	0.04152
846.49	0.04537
834.132	0.04898
821.774	0.04987
809.417	0.05199
797.059	0.05457
784.702	0.05739
772.344	0.06142
759.987	0.06645
747.629	0.07230
735.272	0.07789
722.914	0.08291
710.557	0.08861
698.199	0.09493
685.842	0.09983
673.484	0.10396
661.127	0.10700
648.769	0.10877
636.412	0.10942
624.054	0.10940
611.697	0.10945
599.339	0.11008
586.982	0.11260
574.624	0.11544
562.267	0.12142
549.909	0.12615
537.552	0.12801
525.194	0.12673
512.837	0.12667
500.479	0.12499
488.122	0.12299
475.764	0.11960
463.407	0.11564
451.049	0.11082
438.692	0.10759
426.334	0.10400
413.977	0.10327
401.619	0.09885
399.56	0.09782