File: FTIR/db-LASE IR data/AgNPr-LASE lasered at 85C/Silk AgNPr film 85C 2 8.26.22.dpt
3997.65	-0.00465
3985.3	-0.00316
3972.94	-0.00340
3960.58	-0.00328
3948.22	-0.00535
3935.87	-0.00530
3923.51	-0.00373
3911.15	-0.00359
3898.79	-0.00380
3886.44	-0.00398
3874.08	-0.00205
3861.72	-0.00192
3849.36	-0.00182
3837.01	-0.00484
3824.65	-0.00346
3812.29	-0.00448
3799.93	-0.00446
3787.58	-0.00365
3775.22	-0.00317
3762.86	-0.00293
3750.5	-0.00237
3738.15	0.00002
3725.79	-0.00233
3713.43	-0.00190
3701.07	-0.00095
3688.72	-0.00046
3676.36	0.00070
3664	0.00399
3651.64	0.00705
3639.29	0.01205
3626.93	0.01793
3614.57	0.02393
3602.21	0.03040
3589.86	0.03709
3577.5	0.04345
3565.14	0.05354
3552.78	0.06018
3540.43	0.06749
3528.07	0.07439
3515.71	0.08103
3503.35	0.08801
3491	0.09244
3478.64	0.09745
3466.28	0.10105
3453.92	0.10478
3441.57	0.10902
3429.21	0.11290
3416.85	0.11940
3404.49	0.12587
3392.14	0.13382
3379.78	0.14251
3367.42	0.14995
3355.06	0.16239
3342.71	0.17251
3330.35	0.18494
3317.99	0.19808
3305.63	0.21133
3293.28	0.22219
3280.92	0.22550
3268.56	0.22448
3256.2	0.21421
3243.85	0.20275
3231.49	0.19126
3219.13	0.17907
3206.77	0.16604
3194.42	0.15131
3182.06	0.13757
3169.7	0.12218
3157.34	0.10954
3144.99	0.09800
3132.63	0.09214
3120.27	0.08973
3107.91	0.08993
3095.56	0.09383
3083.2	0.09976
3070.84	0.10040
3058.48	0.09655
3046.13	0.08690
3033.77	0.07638
3021.41	0.06744
3009.05	0.06078
2996.7	0.06127
2984.34	0.06654
2971.98	0.06382
2959.62	0.05850
2947.27	0.06336
2934.91	0.06652
2922.55	0.03152
2910.19	0.02165
2897.84	0.03243
2885.48	0.03494
2873.12	0.03557
2860.76	0.02830
2848.41	-0.00522
2836.05	0.02527
2823.69	0.02642
2811.33	0.02612
2798.98	0.02448
2786.62	0.02220
2774.26	0.01974
2761.9	0.01771
2749.55	0.01602
2737.19	0.01456
2724.83	0.01359
2712.47	0.01240
2700.12	0.01189
2687.76	0.01144
2675.4	0.01120
2663.04	0.01065
2650.69	0.01054
2638.33	0.01047
2625.97	0.00999
2613.61	0.00940
2601.26	0.00832
2588.9	0.00834
2576.54	0.00704
2564.18	0.00651
2551.83	0.00594
2539.47	0.00635
2527.11	0.00604
2514.75	0.00573
2502.4	0.00443
2490.04	0.00537
2477.68	0.00470
2465.32	0.00435
2452.97	0.00421
2440.61	0.00473
2428.25	0.00458
2415.89	0.00369
2403.54	0.00389
2391.18	0.00380
2378.82	0.00328
2366.46	0.00407
2354.11	0.00404
2341.75	0.00344
2329.39	0.00451
2317.03	0.00509
2304.68	0.00588
2292.32	0.00500
2279.96	0.00452
2267.6	0.00559
2255.25	0.00444
2242.89	0.00477
2230.53	0.00531
2218.17	0.00381
2205.82	0.00645
2193.46	0.00385
2181.1	0.00520
2168.74	0.00499
2156.39	0.00502
2144.03	0.00409
2131.67	0.00400
2119.31	0.00593
2106.96	0.00677
2094.6	0.00560
2082.24	0.00540
2069.88	0.00491
2057.53	0.00459
2045.17	0.00402
2032.81	0.00387
2020.45	0.00505
2008.1	0.00438
1995.74	0.00410
1983.38	0.00435
1971.02	0.00426
1958.67	0.00336
1946.31	0.00353
1933.95	0.00378
1921.59	0.00277
1909.24	0.00349
1896.88	0.00434
1884.52	0.00415
1872.16	0.00423
1859.81	0.00396
1847.45	0.00432
1835.09	0.00506
1822.73	0.00553
1810.38	0.00603
1798.02	0.00671
1785.66	0.00748
1773.3	0.00831
1760.95	0.00964
1748.59	0.01116
1736.23	0.01314
1723.87	0.01699
1711.52	0.03022
1699.16	0.07123
1686.8	0.12659
1674.44	0.19101
1662.09	0.26165
1649.73	0.32526
1637.37	0.34767
1625.01	0.31140
1612.66	0.22536
1600.3	0.14989
1587.94	0.12756
1575.58	0.14286
1563.23	0.19249
1550.87	0.25440
1538.51	0.29303
1526.15	0.31754
1513.8	0.33544
1501.44	0.28272
1489.08	0.19829
1476.72	0.14272
1464.37	0.13407
1452.01	0.15582
1439.65	0.13432
1427.29	0.11712
1414.94	0.13793
1402.58	0.13482
1390.22	0.13260
1377.86	0.13704
1365.5	0.11633
1353.15	0.09989
1340.79	0.11384
1328.43	0.11700
1316.07	0.10315
1303.72	0.10765
1291.36	0.11518
1279	0.12263
1266.64	0.13952
1254.29	0.15900
1241.93	0.18310
1229.57	0.18761
1217.21	0.15072
1204.86	0.10968
1192.5	0.08670
1180.14	0.08734
1167.78	0.09840
1155.43	0.09094
1143.07	0.07778
1130.71	0.07149
1118.35	0.07095
1106	0.07055
1093.64	0.06630
1081.28	0.07825
1068.92	0.08821
1056.57	0.09056
1044.21	0.07924
1031.85	0.07049
1019.49	0.07392
1007.14	0.07032
994.78	0.04961
982.422	0.04175
970.065	0.04109
957.707	0.04503
945.35	0.04794
932.992	0.04429
920.635	0.04018
908.277	0.03686
895.92	0.03538
883.562	0.03605
871.205	0.03778
858.847	0.04402
846.49	0.04803
834.132	0.05300
821.774	0.05390
809.417	0.05698
797.059	0.05973
784.702	0.06392
772.344	0.06890
759.987	0.07450
747.629	0.08197
735.272	0.08859
722.914	0.09433
710.557	0.10123
698.199	0.10864
685.842	0.11440
673.484	0.11980
661.127	0.12378
648.769	0.12552
636.412	0.12613
624.054	0.12643
611.697	0.12651
599.339	0.12774
586.982	0.13002
574.624	0.13489
562.267	0.14063
549.909	0.14766
537.552	0.14919
525.194	0.14841
512.837	0.14797
500.479	0.14665
488.122	0.14411
475.764	0.14012
463.407	0.13455
451.049	0.12924
438.692	0.12518
426.334	0.12276
413.977	0.11954
401.619	0.11788
399.56	0.11841