File: FTIR/db-LASE IR data/AgNPr-LASE lasered at 85C/Silk AgNPr film 85C 8.26.22.dpt
3997.65	-0.00145
3985.3	0.00019
3972.94	0.00023
3960.58	-0.00080
3948.22	-0.00259
3935.87	-0.00115
3923.51	-0.00176
3911.15	-0.00056
3898.79	0.00001
3886.44	-0.00201
3874.08	-0.00076
3861.72	0.00081
3849.36	0.00320
3837.01	-0.00404
3824.65	0.00073
3812.29	-0.00015
3799.93	-0.00243
3787.58	-0.00139
3775.22	0.00040
3762.86	0.00124
3750.5	-0.00220
3738.15	0.00544
3725.79	0.00188
3713.43	-0.00153
3701.07	-0.00034
3688.72	-0.00075
3676.36	0.00290
3664	0.01373
3651.64	0.02034
3639.29	0.02713
3626.93	0.03859
3614.57	0.05109
3602.21	0.06006
3589.86	0.07261
3577.5	0.08327
3565.14	0.09868
3552.78	0.11085
3540.43	0.12603
3528.07	0.13767
3515.71	0.14980
3503.35	0.15955
3491	0.16925
3478.64	0.17628
3466.28	0.18380
3453.92	0.19143
3441.57	0.19770
3429.21	0.20476
3416.85	0.21554
3404.49	0.22782
3392.14	0.23959
3379.78	0.25304
3367.42	0.26812
3355.06	0.28851
3342.71	0.31303
3330.35	0.34783
3317.99	0.39287
3305.63	0.45002
3293.28	0.51736
3280.92	0.56557
3268.56	0.54903
3256.2	0.49035
3243.85	0.43679
3231.49	0.39531
3219.13	0.36088
3206.77	0.32792
3194.42	0.29500
3182.06	0.26307
3169.7	0.23223
3157.34	0.20469
3144.99	0.18440
3132.63	0.17166
3120.27	0.16714
3107.91	0.16979
3095.56	0.17707
3083.2	0.18715
3070.84	0.18886
3058.48	0.17867
3046.13	0.15817
3033.77	0.13738
3021.41	0.12011
3009.05	0.10970
2996.7	0.11283
2984.34	0.12535
2971.98	0.12525
2959.62	0.11489
2947.27	0.11829
2934.91	0.13027
2922.55	0.09421
2910.19	0.07195
2897.84	0.07494
2885.48	0.07546
2873.12	0.07727
2860.76	0.06317
2848.41	0.02801
2836.05	0.05092
2823.69	0.05128
2811.33	0.05019
2798.98	0.04748
2786.62	0.04418
2774.26	0.04018
2761.9	0.03581
2749.55	0.03281
2737.19	0.02958
2724.83	0.02760
2712.47	0.02490
2700.12	0.02378
2687.76	0.02275
2675.4	0.02188
2663.04	0.02072
2650.69	0.02016
2638.33	0.01973
2625.97	0.01974
2613.61	0.01812
2601.26	0.01660
2588.9	0.01586
2576.54	0.01402
2564.18	0.01294
2551.83	0.01213
2539.47	0.01152
2527.11	0.01079
2514.75	0.01099
2502.4	0.00987
2490.04	0.01011
2477.68	0.00917
2465.32	0.00933
2452.97	0.00895
2440.61	0.00927
2428.25	0.00888
2415.89	0.00781
2403.54	0.00734
2391.18	0.00723
2378.82	0.00748
2366.46	0.00670
2354.11	0.00754
2341.75	0.00770
2329.39	0.00848
2317.03	0.00940
2304.68	0.00947
2292.32	0.00777
2279.96	0.00857
2267.6	0.00826
2255.25	0.00689
2242.89	0.00734
2230.53	0.00733
2218.17	0.00758
2205.82	0.00826
2193.46	0.00679
2181.1	0.00632
2168.74	0.00713
2156.39	0.00693
2144.03	0.00770
2131.67	0.00685
2119.31	0.00873
2106.96	0.00898
2094.6	0.00901
2082.24	0.00855
2069.88	0.00808
2057.53	0.00752
2045.17	0.00773
2032.81	0.00595
2020.45	0.00676
2008.1	0.00544
1995.74	0.00740
1983.38	0.00677
1971.02	0.00564
1958.67	0.00481
1946.31	0.00613
1933.95	0.00675
1921.59	0.00633
1909.24	0.00621
1896.88	0.00702
1884.52	0.00744
1872.16	0.00760
1859.81	0.00755
1847.45	0.00775
1835.09	0.00860
1822.73	0.00990
1810.38	0.00964
1798.02	0.01186
1785.66	0.01319
1773.3	0.01314
1760.95	0.01567
1748.59	0.01834
1736.23	0.02263
1723.87	0.02890
1711.52	0.05400
1699.16	0.14875
1686.8	0.19910
1674.44	0.28251
1662.09	0.37943
1649.73	0.47790
1637.37	0.52209
1625.01	0.63444
1612.66	0.59009
1600.3	0.33619
1587.94	0.23206
1575.58	0.23377
1563.23	0.31286
1550.87	0.41312
1538.51	0.51025
1526.15	0.59066
1513.8	0.64707
1501.44	0.54373
1489.08	0.37280
1476.72	0.26778
1464.37	0.24289
1452.01	0.29491
1439.65	0.29491
1427.29	0.23309
1414.94	0.24652
1402.58	0.24826
1390.22	0.23549
1377.86	0.22997
1365.5	0.20795
1353.15	0.17542
1340.79	0.18578
1328.43	0.18523
1316.07	0.16663
1303.72	0.16725
1291.36	0.17110
1279	0.18554
1266.64	0.22694
1254.29	0.24708
1241.93	0.27822
1229.57	0.30271
1217.21	0.25394
1204.86	0.18101
1192.5	0.13765
1180.14	0.13294
1167.78	0.15781
1155.43	0.14706
1143.07	0.11737
1130.71	0.10375
1118.35	0.10010
1106	0.10181
1093.64	0.10030
1081.28	0.12360
1068.92	0.14510
1056.57	0.14348
1044.21	0.12688
1031.85	0.10927
1019.49	0.10352
1007.14	0.10235
994.78	0.09193
982.422	0.07568
970.065	0.07568
957.707	0.06858
945.35	0.06738
932.992	0.06392
920.635	0.05816
908.277	0.05126
895.92	0.04962
883.562	0.05005
871.205	0.05083
858.847	0.05770
846.49	0.06283
834.132	0.06912
821.774	0.07099
809.417	0.07342
797.059	0.07550
784.702	0.08240
772.344	0.09198
759.987	0.09997
747.629	0.11031
735.272	0.12479
722.914	0.13969
710.557	0.15219
698.199	0.16530
685.842	0.17264
673.484	0.17531
661.127	0.17850
648.769	0.18235
636.412	0.18341
624.054	0.18282
611.697	0.18516
599.339	0.17995
586.982	0.17623
574.624	0.17658
562.267	0.18311
549.909	0.20147
537.552	0.19960
525.194	0.19088
512.837	0.18611
500.479	0.17984
488.122	0.17661
475.764	0.16914
463.407	0.15957
451.049	0.15365
438.692	0.14981
426.334	0.15119
413.977	0.14468
401.619	0.13835
399.56	0.13631