File: FTIR/Clancy/CBN_recrystal_Floraworks_2025_10_4_ECE_scan3.csv
Created as New Dataset,Sample 185 By YargerLab Date Saturday, October 04 2025
cm-1,A
4000.00,0.0117
3987.00,0.0116
3974.00,0.0118
3961.00,0.0118
3948.00,0.0117
3935.00,0.0116
3922.00,0.0117
3909.00,0.0116
3896.00,0.0115
3883.00,0.0114
3870.00,0.0114
3857.00,0.0115
3844.00,0.0113
3831.00,0.0112
3818.00,0.0113
3805.00,0.0112
3792.00,0.0112
3779.00,0.0112
3766.00,0.0111
3753.00,0.0112
3740.00,0.0110
3727.00,0.0109
3714.00,0.0108
3701.00,0.0107
3688.00,0.0107
3675.00,0.0106
3662.00,0.0107
3649.00,0.0105
3636.00,0.0107
3623.00,0.0106
3610.00,0.0107
3597.00,0.0107
3584.00,0.0108
3571.00,0.0110
3558.00,0.0113
3545.00,0.0118
3532.00,0.0124
3519.00,0.0132
3506.00,0.0143
3493.00,0.0159
3480.00,0.0181
3467.00,0.0213
3454.00,0.0248
3441.00,0.0291
3428.00,0.0351
3415.00,0.0420
3402.00,0.0462
3389.00,0.0444
3376.00,0.0402
3363.00,0.0366
3350.00,0.0345
3337.00,0.0336
3324.00,0.0340
3311.00,0.0354
3298.00,0.0375
3285.00,0.0401
3272.00,0.0429
3259.00,0.0456
3246.00,0.0480
3233.00,0.0490
3220.00,0.0486
3207.00,0.0462
3194.00,0.0427
3181.00,0.0388
3168.00,0.0349
3155.00,0.0309
3142.00,0.0276
3129.00,0.0250
3116.00,0.0231
3103.00,0.0209
3090.00,0.0207
3077.00,0.0205
3064.00,0.0200
3051.00,0.0204
3038.00,0.0209
3025.00,0.0205
3012.00,0.0186
2999.00,0.0232
2986.00,0.0326
2973.00,0.0500
2960.00,0.0675
2947.00,0.0485
2934.00,0.0816
2921.00,0.1026
2908.00,0.0643
2895.00,0.0461
2882.00,0.0389
2869.00,0.0498
2856.00,0.0798
2843.00,0.0471
2830.00,0.0286
2817.00,0.0234
2804.00,0.0212
2791.00,0.0195
2778.00,0.0182
2765.00,0.0177
2752.00,0.0176
2739.00,0.0181
2726.00,0.0191
2713.00,0.0180
2700.00,0.0177
2687.00,0.0170
2674.00,0.0168
2661.00,0.0175
2648.00,0.0176
2635.00,0.0170
2622.00,0.0161
2609.00,0.0159
2596.00,0.0163
2583.00,0.0163
2570.00,0.0159
2557.00,0.0153
2544.00,0.0150
2531.00,0.0152
2518.00,0.0147
2505.00,0.0141
2492.00,0.0138
2479.00,0.0137
2466.00,0.0134
2453.00,0.0134
2440.00,0.0131
2427.00,0.0128
2414.00,0.0128
2401.00,0.0127
2388.00,0.0125
2375.00,0.0123
2362.00,0.0122
2349.00,0.0123
2336.00,0.0124
2323.00,0.0132
2310.00,0.0123
2297.00,0.0125
2284.00,0.0129
2271.00,0.0119
2258.00,0.0114
2245.00,0.0114
2232.00,0.0114
2219.00,0.0113
2206.00,0.0113
2193.00,0.0110
2180.00,0.0107
2167.00,0.0115
2154.00,0.0087
2141.00,0.0095
2128.00,0.0093
2115.00,0.0103
2102.00,0.0099
2089.00,0.0096
2076.00,0.0104
2063.00,0.0095
2050.00,0.0096
2037.00,0.0097
2024.00,0.0090
2011.00,0.0090
1998.00,0.0090
1985.00,0.0099
1972.00,0.0089
1959.00,0.0084
1946.00,0.0090
1933.00,0.0095
1920.00,0.0100
1907.00,0.0130
1894.00,0.0116
1881.00,0.0099
1868.00,0.0102
1855.00,0.0102
1842.00,0.0110
1829.00,0.0099
1816.00,0.0099
1803.00,0.0102
1790.00,0.0108
1777.00,0.0112
1764.00,0.0111
1751.00,0.0109
1738.00,0.0113
1725.00,0.0129
1712.00,0.0144
1699.00,0.0149
1686.00,0.0156
1673.00,0.0162
1660.00,0.0173
1647.00,0.0191
1634.00,0.0307
1621.00,0.1281
1608.00,0.0965
1595.00,0.0471
1582.00,0.1065
1569.00,0.0653
1556.00,0.0324
1543.00,0.0273
1530.00,0.0243
1517.00,0.0301
1504.00,0.0376
1491.00,0.0541
1478.00,0.0283
1465.00,0.0706
1452.00,0.0604
1439.00,0.0834
1426.00,0.1029
1413.00,0.0716
1400.00,0.1312
1387.00,0.0878
1374.00,0.0637
1361.00,0.1014
1348.00,0.0820
1335.00,0.0575
1322.00,0.0564
1309.00,0.0510
1296.00,0.0869
1283.00,0.0919
1270.00,0.0441
1257.00,0.0348
1244.00,0.0646
1231.00,0.0994
1218.00,0.0663
1205.00,0.0520
1192.00,0.1124
1179.00,0.0415
1166.00,0.0355
1153.00,0.1071
1140.00,0.0407
1127.00,0.1443
1114.00,0.0615
1101.00,0.0883
1088.00,0.0385
1075.00,0.0355
1062.00,0.0652
1049.00,0.1921
1036.00,0.0930
1023.00,0.1435
1010.00,0.0562
997.00,0.0743
984.00,0.0406
971.00,0.0372
958.00,0.0343
945.00,0.0293
932.00,0.0420
919.00,0.0448
906.00,0.0266
893.00,0.0405
880.00,0.0336
867.00,0.1128
854.00,0.0727
841.00,0.0639
828.00,0.0736
815.00,0.1538
802.00,0.0334
789.00,0.0266
776.00,0.0374
763.00,0.0313
750.00,0.0298
737.00,0.0640
724.00,0.0570
711.00,0.0584
698.00,0.0619
685.00,0.0633
672.00,0.0798
659.00,0.0731
646.00,0.0506
633.00,0.0483
620.00,0.0701
607.00,0.0658
594.00,0.0936
581.00,0.0792
568.00,0.0663
555.00,0.0817
542.00,0.0953
529.00,0.0960
516.00,0.0531
503.00,0.0536
490.00,0.0528
477.00,0.0366
464.00,0.0327
451.00,0.0324
438.00,0.0319
425.00,0.0259
412.00,0.0356
400.00,0.0292