File: FTIR/Clancy/CBN_recrystal_Floraworks_2025_10_4_ECE_scan1.csv
Created as New Dataset,Sample 183 By YargerLab Date Friday, October 03 2025
cm-1,A
4000.00,0.0126
3987.00,0.0126
3974.00,0.0128
3961.00,0.0127
3948.00,0.0126
3935.00,0.0125
3922.00,0.0126
3909.00,0.0126
3896.00,0.0125
3883.00,0.0125
3870.00,0.0124
3857.00,0.0125
3844.00,0.0125
3831.00,0.0123
3818.00,0.0123
3805.00,0.0123
3792.00,0.0122
3779.00,0.0121
3766.00,0.0122
3753.00,0.0123
3740.00,0.0121
3727.00,0.0119
3714.00,0.0120
3701.00,0.0117
3688.00,0.0118
3675.00,0.0118
3662.00,0.0118
3649.00,0.0117
3636.00,0.0117
3623.00,0.0116
3610.00,0.0118
3597.00,0.0119
3584.00,0.0119
3571.00,0.0121
3558.00,0.0124
3545.00,0.0129
3532.00,0.0135
3519.00,0.0142
3506.00,0.0152
3493.00,0.0167
3480.00,0.0189
3467.00,0.0217
3454.00,0.0251
3441.00,0.0290
3428.00,0.0346
3415.00,0.0410
3402.00,0.0450
3389.00,0.0436
3376.00,0.0397
3363.00,0.0364
3350.00,0.0344
3337.00,0.0336
3324.00,0.0339
3311.00,0.0352
3298.00,0.0372
3285.00,0.0397
3272.00,0.0423
3259.00,0.0448
3246.00,0.0472
3233.00,0.0482
3220.00,0.0479
3207.00,0.0458
3194.00,0.0426
3181.00,0.0390
3168.00,0.0353
3155.00,0.0315
3142.00,0.0283
3129.00,0.0258
3116.00,0.0241
3103.00,0.0219
3090.00,0.0216
3077.00,0.0214
3064.00,0.0210
3051.00,0.0213
3038.00,0.0217
3025.00,0.0213
3012.00,0.0194
2999.00,0.0238
2986.00,0.0326
2973.00,0.0493
2960.00,0.0659
2947.00,0.0480
2934.00,0.0792
2921.00,0.0995
2908.00,0.0636
2895.00,0.0463
2882.00,0.0394
2869.00,0.0496
2856.00,0.0781
2843.00,0.0476
2830.00,0.0298
2817.00,0.0248
2804.00,0.0226
2791.00,0.0209
2778.00,0.0197
2765.00,0.0191
2752.00,0.0191
2739.00,0.0195
2726.00,0.0204
2713.00,0.0194
2700.00,0.0191
2687.00,0.0184
2674.00,0.0182
2661.00,0.0189
2648.00,0.0190
2635.00,0.0185
2622.00,0.0175
2609.00,0.0173
2596.00,0.0177
2583.00,0.0178
2570.00,0.0173
2557.00,0.0168
2544.00,0.0165
2531.00,0.0166
2518.00,0.0161
2505.00,0.0157
2492.00,0.0154
2479.00,0.0152
2466.00,0.0149
2453.00,0.0150
2440.00,0.0146
2427.00,0.0144
2414.00,0.0143
2401.00,0.0142
2388.00,0.0140
2375.00,0.0139
2362.00,0.0140
2349.00,0.0141
2336.00,0.0142
2323.00,0.0151
2310.00,0.0140
2297.00,0.0141
2284.00,0.0146
2271.00,0.0137
2258.00,0.0130
2245.00,0.0130
2232.00,0.0130
2219.00,0.0128
2206.00,0.0130
2193.00,0.0126
2180.00,0.0123
2167.00,0.0132
2154.00,0.0100
2141.00,0.0109
2128.00,0.0109
2115.00,0.0118
2102.00,0.0117
2089.00,0.0114
2076.00,0.0121
2063.00,0.0113
2050.00,0.0114
2037.00,0.0113
2024.00,0.0106
2011.00,0.0106
1998.00,0.0108
1985.00,0.0116
1972.00,0.0105
1959.00,0.0101
1946.00,0.0106
1933.00,0.0110
1920.00,0.0117
1907.00,0.0146
1894.00,0.0132
1881.00,0.0116
1868.00,0.0117
1855.00,0.0119
1842.00,0.0126
1829.00,0.0116
1816.00,0.0115
1803.00,0.0119
1790.00,0.0125
1777.00,0.0128
1764.00,0.0128
1751.00,0.0127
1738.00,0.0131
1725.00,0.0146
1712.00,0.0160
1699.00,0.0165
1686.00,0.0172
1673.00,0.0178
1660.00,0.0188
1647.00,0.0207
1634.00,0.0313
1621.00,0.1245
1608.00,0.0952
1595.00,0.0480
1582.00,0.1046
1569.00,0.0658
1556.00,0.0342
1543.00,0.0291
1530.00,0.0260
1517.00,0.0316
1504.00,0.0384
1491.00,0.0546
1478.00,0.0295
1465.00,0.0704
1452.00,0.0604
1439.00,0.0826
1426.00,0.1018
1413.00,0.0717
1400.00,0.1287
1387.00,0.0872
1374.00,0.0646
1361.00,0.1002
1348.00,0.0823
1335.00,0.0586
1322.00,0.0573
1309.00,0.0519
1296.00,0.0869
1283.00,0.0922
1270.00,0.0463
1257.00,0.0369
1244.00,0.0653
1231.00,0.0993
1218.00,0.0673
1205.00,0.0535
1192.00,0.1116
1179.00,0.0437
1166.00,0.0375
1153.00,0.1058
1140.00,0.0422
1127.00,0.1413
1114.00,0.0636
1101.00,0.0889
1088.00,0.0411
1075.00,0.0376
1062.00,0.0655
1049.00,0.1868
1036.00,0.0937
1023.00,0.1435
1010.00,0.0587
997.00,0.0763
984.00,0.0434
971.00,0.0398
958.00,0.0372
945.00,0.0321
932.00,0.0441
919.00,0.0469
906.00,0.0292
893.00,0.0425
880.00,0.0356
867.00,0.1122
854.00,0.0736
841.00,0.0662
828.00,0.0757
815.00,0.1538
802.00,0.0368
789.00,0.0297
776.00,0.0403
763.00,0.0343
750.00,0.0327
737.00,0.0659
724.00,0.0595
711.00,0.0611
698.00,0.0642
685.00,0.0657
672.00,0.0818
659.00,0.0757
646.00,0.0535
633.00,0.0510
620.00,0.0730
607.00,0.0687
594.00,0.0961
581.00,0.0817
568.00,0.0691
555.00,0.0843
542.00,0.0980
529.00,0.0993
516.00,0.0563
503.00,0.0566
490.00,0.0561
477.00,0.0404
464.00,0.0358
451.00,0.0350
438.00,0.0353
425.00,0.0294
412.00,0.0387
400.00,0.0322