File: FTIR/Clancy/CBN_recrystal_Floraworks_2025_10_4_ECE_scan2.csv
Created as New Dataset,Sample 184 By YargerLab Date Saturday, October 04 2025
cm-1,A
4000.00,0.0116
3987.00,0.0115
3974.00,0.0117
3961.00,0.0116
3948.00,0.0115
3935.00,0.0114
3922.00,0.0115
3909.00,0.0114
3896.00,0.0114
3883.00,0.0113
3870.00,0.0112
3857.00,0.0113
3844.00,0.0112
3831.00,0.0112
3818.00,0.0111
3805.00,0.0111
3792.00,0.0111
3779.00,0.0111
3766.00,0.0110
3753.00,0.0109
3740.00,0.0109
3727.00,0.0107
3714.00,0.0107
3701.00,0.0106
3688.00,0.0106
3675.00,0.0106
3662.00,0.0107
3649.00,0.0105
3636.00,0.0106
3623.00,0.0105
3610.00,0.0106
3597.00,0.0107
3584.00,0.0107
3571.00,0.0110
3558.00,0.0112
3545.00,0.0117
3532.00,0.0123
3519.00,0.0130
3506.00,0.0140
3493.00,0.0155
3480.00,0.0177
3467.00,0.0205
3454.00,0.0239
3441.00,0.0279
3428.00,0.0334
3415.00,0.0398
3402.00,0.0437
3389.00,0.0421
3376.00,0.0383
3363.00,0.0350
3350.00,0.0330
3337.00,0.0322
3324.00,0.0325
3311.00,0.0339
3298.00,0.0358
3285.00,0.0383
3272.00,0.0409
3259.00,0.0434
3246.00,0.0456
3233.00,0.0466
3220.00,0.0462
3207.00,0.0440
3194.00,0.0407
3181.00,0.0372
3168.00,0.0335
3155.00,0.0297
3142.00,0.0267
3129.00,0.0242
3116.00,0.0225
3103.00,0.0204
3090.00,0.0201
3077.00,0.0199
3064.00,0.0196
3051.00,0.0199
3038.00,0.0203
3025.00,0.0199
3012.00,0.0181
2999.00,0.0225
2986.00,0.0312
2973.00,0.0477
2960.00,0.0639
2947.00,0.0463
2934.00,0.0773
2921.00,0.0966
2908.00,0.0611
2895.00,0.0441
2882.00,0.0374
2869.00,0.0475
2856.00,0.0755
2843.00,0.0451
2830.00,0.0278
2817.00,0.0229
2804.00,0.0207
2791.00,0.0192
2778.00,0.0180
2765.00,0.0175
2752.00,0.0174
2739.00,0.0179
2726.00,0.0187
2713.00,0.0177
2700.00,0.0175
2687.00,0.0168
2674.00,0.0166
2661.00,0.0173
2648.00,0.0174
2635.00,0.0169
2622.00,0.0159
2609.00,0.0158
2596.00,0.0162
2583.00,0.0162
2570.00,0.0157
2557.00,0.0152
2544.00,0.0150
2531.00,0.0151
2518.00,0.0145
2505.00,0.0141
2492.00,0.0138
2479.00,0.0136
2466.00,0.0134
2453.00,0.0135
2440.00,0.0131
2427.00,0.0129
2414.00,0.0129
2401.00,0.0127
2388.00,0.0125
2375.00,0.0123
2362.00,0.0123
2349.00,0.0124
2336.00,0.0126
2323.00,0.0134
2310.00,0.0122
2297.00,0.0125
2284.00,0.0131
2271.00,0.0120
2258.00,0.0115
2245.00,0.0116
2232.00,0.0117
2219.00,0.0115
2206.00,0.0115
2193.00,0.0112
2180.00,0.0108
2167.00,0.0117
2154.00,0.0086
2141.00,0.0096
2128.00,0.0094
2115.00,0.0105
2102.00,0.0101
2089.00,0.0099
2076.00,0.0106
2063.00,0.0100
2050.00,0.0100
2037.00,0.0101
2024.00,0.0093
2011.00,0.0093
1998.00,0.0093
1985.00,0.0103
1972.00,0.0092
1959.00,0.0087
1946.00,0.0093
1933.00,0.0096
1920.00,0.0102
1907.00,0.0131
1894.00,0.0116
1881.00,0.0102
1868.00,0.0102
1855.00,0.0105
1842.00,0.0111
1829.00,0.0101
1816.00,0.0100
1803.00,0.0104
1790.00,0.0110
1777.00,0.0113
1764.00,0.0113
1751.00,0.0111
1738.00,0.0115
1725.00,0.0130
1712.00,0.0145
1699.00,0.0150
1686.00,0.0157
1673.00,0.0162
1660.00,0.0173
1647.00,0.0192
1634.00,0.0299
1621.00,0.1212
1608.00,0.0918
1595.00,0.0456
1582.00,0.1011
1569.00,0.0627
1556.00,0.0318
1543.00,0.0270
1530.00,0.0240
1517.00,0.0296
1504.00,0.0364
1491.00,0.0520
1478.00,0.0277
1465.00,0.0676
1452.00,0.0580
1439.00,0.0797
1426.00,0.0981
1413.00,0.0687
1400.00,0.1245
1387.00,0.0838
1374.00,0.0616
1361.00,0.0965
1348.00,0.0786
1335.00,0.0556
1322.00,0.0544
1309.00,0.0494
1296.00,0.0832
1283.00,0.0882
1270.00,0.0431
1257.00,0.0342
1244.00,0.0623
1231.00,0.0953
1218.00,0.0640
1205.00,0.0504
1192.00,0.1071
1179.00,0.0406
1166.00,0.0349
1153.00,0.1021
1140.00,0.0398
1127.00,0.1370
1114.00,0.0599
1101.00,0.0851
1088.00,0.0381
1075.00,0.0350
1062.00,0.0630
1049.00,0.1816
1036.00,0.0896
1023.00,0.1370
1010.00,0.0551
997.00,0.0720
984.00,0.0399
971.00,0.0367
958.00,0.0340
945.00,0.0291
932.00,0.0412
919.00,0.0437
906.00,0.0266
893.00,0.0397
880.00,0.0329
867.00,0.1080
854.00,0.0704
841.00,0.0622
828.00,0.0713
815.00,0.1469
802.00,0.0334
789.00,0.0266
776.00,0.0371
763.00,0.0313
750.00,0.0297
737.00,0.0620
724.00,0.0555
711.00,0.0568
698.00,0.0601
685.00,0.0614
672.00,0.0771
659.00,0.0712
646.00,0.0497
633.00,0.0475
620.00,0.0681
607.00,0.0643
594.00,0.0903
581.00,0.0769
568.00,0.0647
555.00,0.0794
542.00,0.0924
529.00,0.0929
516.00,0.0521
503.00,0.0525
490.00,0.0516
477.00,0.0370
464.00,0.0326
451.00,0.0322
438.00,0.0313
425.00,0.0257
412.00,0.0337
400.00,0.0303