File: FTIR/Clancy/HPMC_polymer_v2600_5600_ECE_scan2.csv
Created as New Dataset,Sample 287 By YargerLab Date Saturday, October 18 2025
cm-1,A
4000.00,0.0075
3987.00,0.0075
3974.00,0.0075
3961.00,0.0075
3948.00,0.0074
3935.00,0.0074
3922.00,0.0074
3909.00,0.0074
3896.00,0.0073
3883.00,0.0073
3870.00,0.0073
3857.00,0.0072
3844.00,0.0072
3831.00,0.0072
3818.00,0.0072
3805.00,0.0072
3792.00,0.0072
3779.00,0.0073
3766.00,0.0071
3753.00,0.0072
3740.00,0.0070
3727.00,0.0070
3714.00,0.0071
3701.00,0.0070
3688.00,0.0070
3675.00,0.0070
3662.00,0.0072
3649.00,0.0072
3636.00,0.0075
3623.00,0.0077
3610.00,0.0083
3597.00,0.0087
3584.00,0.0092
3571.00,0.0097
3558.00,0.0104
3545.00,0.0114
3532.00,0.0126
3519.00,0.0141
3506.00,0.0159
3493.00,0.0179
3480.00,0.0195
3467.00,0.0204
3454.00,0.0204
3441.00,0.0199
3428.00,0.0190
3415.00,0.0182
3402.00,0.0173
3389.00,0.0164
3376.00,0.0155
3363.00,0.0145
3350.00,0.0138
3337.00,0.0130
3324.00,0.0124
3311.00,0.0117
3298.00,0.0113
3285.00,0.0109
3272.00,0.0106
3259.00,0.0102
3246.00,0.0099
3233.00,0.0095
3220.00,0.0093
3207.00,0.0091
3194.00,0.0089
3181.00,0.0087
3168.00,0.0086
3155.00,0.0085
3142.00,0.0084
3129.00,0.0084
3116.00,0.0083
3103.00,0.0083
3090.00,0.0083
3077.00,0.0083
3064.00,0.0084
3051.00,0.0084
3038.00,0.0085
3025.00,0.0087
3012.00,0.0095
2999.00,0.0117
2986.00,0.0152
2973.00,0.0168
2960.00,0.0179
2947.00,0.0218
2934.00,0.0270
2921.00,0.0282
2908.00,0.0298
2895.00,0.0301
2882.00,0.0289
2869.00,0.0261
2856.00,0.0228
2843.00,0.0242
2830.00,0.0250
2817.00,0.0222
2804.00,0.0171
2791.00,0.0140
2778.00,0.0129
2765.00,0.0124
2752.00,0.0121
2739.00,0.0118
2726.00,0.0115
2713.00,0.0113
2700.00,0.0111
2687.00,0.0110
2674.00,0.0108
2661.00,0.0112
2648.00,0.0113
2635.00,0.0111
2622.00,0.0111
2609.00,0.0109
2596.00,0.0108
2583.00,0.0107
2570.00,0.0104
2557.00,0.0103
2544.00,0.0102
2531.00,0.0101
2518.00,0.0100
2505.00,0.0099
2492.00,0.0100
2479.00,0.0099
2466.00,0.0100
2453.00,0.0101
2440.00,0.0099
2427.00,0.0098
2414.00,0.0098
2401.00,0.0097
2388.00,0.0095
2375.00,0.0092
2362.00,0.0092
2349.00,0.0093
2336.00,0.0096
2323.00,0.0106
2310.00,0.0097
2297.00,0.0102
2284.00,0.0106
2271.00,0.0102
2258.00,0.0102
2245.00,0.0099
2232.00,0.0097
2219.00,0.0097
2206.00,0.0097
2193.00,0.0100
2180.00,0.0094
2167.00,0.0102
2154.00,0.0074
2141.00,0.0081
2128.00,0.0087
2115.00,0.0098
2102.00,0.0097
2089.00,0.0097
2076.00,0.0099
2063.00,0.0096
2050.00,0.0104
2037.00,0.0090
2024.00,0.0080
2011.00,0.0080
1998.00,0.0088
1985.00,0.0093
1972.00,0.0081
1959.00,0.0080
1946.00,0.0085
1933.00,0.0087
1920.00,0.0091
1907.00,0.0089
1894.00,0.0090
1881.00,0.0090
1868.00,0.0092
1855.00,0.0093
1842.00,0.0093
1829.00,0.0093
1816.00,0.0093
1803.00,0.0096
1790.00,0.0097
1777.00,0.0097
1764.00,0.0098
1751.00,0.0098
1738.00,0.0100
1725.00,0.0101
1712.00,0.0096
1699.00,0.0076
1686.00,0.0022
1673.00,0.0010
1660.00,0.0025
1647.00,0.0079
1634.00,0.0115
1621.00,0.0119
1608.00,0.0116
1595.00,0.0108
1582.00,0.0112
1569.00,0.0111
1556.00,0.0110
1543.00,0.0108
1530.00,0.0107
1517.00,0.0107
1504.00,0.0106
1491.00,0.0109
1478.00,0.0172
1465.00,0.0233
1452.00,0.0273
1439.00,0.0198
1426.00,0.0150
1413.00,0.0213
1400.00,0.0218
1387.00,0.0239
1374.00,0.0309
1361.00,0.0261
1348.00,0.0244
1335.00,0.0270
1322.00,0.0269
1309.00,0.0285
1296.00,0.0215
1283.00,0.0187
1270.00,0.0176
1257.00,0.0175
1244.00,0.0165
1231.00,0.0159
1218.00,0.0214
1205.00,0.0295
1192.00,0.0330
1179.00,0.0317
1166.00,0.0402
1153.00,0.0609
1140.00,0.0714
1127.00,0.0982
1114.00,0.1203
1101.00,0.1272
1088.00,0.1334
1075.00,0.1592
1062.00,0.1832
1049.00,0.1887
1036.00,0.1719
1023.00,0.1544
1010.00,0.1373
997.00,0.1079
984.00,0.0815
971.00,0.0680
958.00,0.0780
945.00,0.0939
932.00,0.0812
919.00,0.0719
906.00,0.0622
893.00,0.0563
880.00,0.0480
867.00,0.0405
854.00,0.0398
841.00,0.0384
828.00,0.0359
815.00,0.0355
802.00,0.0339
789.00,0.0326
776.00,0.0318
763.00,0.0315
750.00,0.0313
737.00,0.0315
724.00,0.0319
711.00,0.0345
698.00,0.0351
685.00,0.0360
672.00,0.0461
659.00,0.0519
646.00,0.0519
633.00,0.0542
620.00,0.0596
607.00,0.0637
594.00,0.0648
581.00,0.0688
568.00,0.0734
555.00,0.0733
542.00,0.0739
529.00,0.0744
516.00,0.0755
503.00,0.0763
490.00,0.0771
477.00,0.0797
464.00,0.0798
451.00,0.0764
438.00,0.0731
425.00,0.0709
412.00,0.0689
400.00,0.0685