File: FTIR/Clancy/HPMC_polymer_v2600_5600_ECE_scan3.csv
Created as New Dataset,Sample 288 By YargerLab Date Saturday, October 18 2025
cm-1,A
4000.00,0.0077
3987.00,0.0077
3974.00,0.0076
3961.00,0.0076
3948.00,0.0077
3935.00,0.0076
3922.00,0.0076
3909.00,0.0076
3896.00,0.0075
3883.00,0.0075
3870.00,0.0075
3857.00,0.0074
3844.00,0.0074
3831.00,0.0074
3818.00,0.0074
3805.00,0.0074
3792.00,0.0074
3779.00,0.0074
3766.00,0.0074
3753.00,0.0073
3740.00,0.0073
3727.00,0.0072
3714.00,0.0072
3701.00,0.0072
3688.00,0.0072
3675.00,0.0073
3662.00,0.0075
3649.00,0.0075
3636.00,0.0078
3623.00,0.0081
3610.00,0.0087
3597.00,0.0092
3584.00,0.0097
3571.00,0.0104
3558.00,0.0112
3545.00,0.0123
3532.00,0.0135
3519.00,0.0152
3506.00,0.0172
3493.00,0.0194
3480.00,0.0213
3467.00,0.0223
3454.00,0.0222
3441.00,0.0216
3428.00,0.0206
3415.00,0.0195
3402.00,0.0186
3389.00,0.0175
3376.00,0.0164
3363.00,0.0153
3350.00,0.0144
3337.00,0.0136
3324.00,0.0128
3311.00,0.0122
3298.00,0.0116
3285.00,0.0112
3272.00,0.0108
3259.00,0.0104
3246.00,0.0100
3233.00,0.0097
3220.00,0.0093
3207.00,0.0091
3194.00,0.0088
3181.00,0.0087
3168.00,0.0086
3155.00,0.0085
3142.00,0.0085
3129.00,0.0085
3116.00,0.0084
3103.00,0.0085
3090.00,0.0085
3077.00,0.0085
3064.00,0.0085
3051.00,0.0086
3038.00,0.0087
3025.00,0.0090
3012.00,0.0098
2999.00,0.0121
2986.00,0.0160
2973.00,0.0176
2960.00,0.0186
2947.00,0.0231
2934.00,0.0286
2921.00,0.0300
2908.00,0.0321
2895.00,0.0327
2882.00,0.0312
2869.00,0.0280
2856.00,0.0241
2843.00,0.0260
2830.00,0.0272
2817.00,0.0240
2804.00,0.0182
2791.00,0.0147
2778.00,0.0136
2765.00,0.0130
2752.00,0.0126
2739.00,0.0123
2726.00,0.0120
2713.00,0.0117
2700.00,0.0115
2687.00,0.0113
2674.00,0.0112
2661.00,0.0116
2648.00,0.0116
2635.00,0.0114
2622.00,0.0113
2609.00,0.0112
2596.00,0.0111
2583.00,0.0109
2570.00,0.0106
2557.00,0.0105
2544.00,0.0103
2531.00,0.0103
2518.00,0.0102
2505.00,0.0101
2492.00,0.0102
2479.00,0.0101
2466.00,0.0102
2453.00,0.0102
2440.00,0.0101
2427.00,0.0101
2414.00,0.0100
2401.00,0.0100
2388.00,0.0097
2375.00,0.0093
2362.00,0.0092
2349.00,0.0094
2336.00,0.0097
2323.00,0.0106
2310.00,0.0099
2297.00,0.0104
2284.00,0.0109
2271.00,0.0103
2258.00,0.0103
2245.00,0.0101
2232.00,0.0099
2219.00,0.0098
2206.00,0.0098
2193.00,0.0099
2180.00,0.0095
2167.00,0.0100
2154.00,0.0075
2141.00,0.0083
2128.00,0.0091
2115.00,0.0102
2102.00,0.0103
2089.00,0.0101
2076.00,0.0102
2063.00,0.0101
2050.00,0.0107
2037.00,0.0096
2024.00,0.0083
2011.00,0.0085
1998.00,0.0090
1985.00,0.0096
1972.00,0.0085
1959.00,0.0084
1946.00,0.0090
1933.00,0.0092
1920.00,0.0095
1907.00,0.0093
1894.00,0.0094
1881.00,0.0095
1868.00,0.0096
1855.00,0.0098
1842.00,0.0097
1829.00,0.0098
1816.00,0.0098
1803.00,0.0101
1790.00,0.0103
1777.00,0.0102
1764.00,0.0103
1751.00,0.0102
1738.00,0.0104
1725.00,0.0105
1712.00,0.0100
1699.00,0.0076
1686.00,0.0015
1673.00,-0.0001
1660.00,0.0013
1647.00,0.0076
1634.00,0.0120
1621.00,0.0125
1608.00,0.0122
1595.00,0.0114
1582.00,0.0118
1569.00,0.0118
1556.00,0.0117
1543.00,0.0115
1530.00,0.0113
1517.00,0.0113
1504.00,0.0112
1491.00,0.0115
1478.00,0.0187
1465.00,0.0254
1452.00,0.0298
1439.00,0.0212
1426.00,0.0158
1413.00,0.0232
1400.00,0.0237
1387.00,0.0261
1374.00,0.0340
1361.00,0.0285
1348.00,0.0267
1335.00,0.0297
1322.00,0.0295
1309.00,0.0314
1296.00,0.0231
1283.00,0.0202
1270.00,0.0191
1257.00,0.0189
1244.00,0.0178
1231.00,0.0172
1218.00,0.0236
1205.00,0.0328
1192.00,0.0370
1179.00,0.0357
1166.00,0.0454
1153.00,0.0693
1140.00,0.0817
1127.00,0.1131
1114.00,0.1389
1101.00,0.1471
1088.00,0.1545
1075.00,0.1851
1062.00,0.2131
1049.00,0.2191
1036.00,0.1986
1023.00,0.1775
1010.00,0.1567
997.00,0.1215
984.00,0.0907
971.00,0.0752
958.00,0.0875
945.00,0.1060
932.00,0.0907
919.00,0.0796
906.00,0.0681
893.00,0.0610
880.00,0.0513
867.00,0.0428
854.00,0.0422
841.00,0.0404
828.00,0.0377
815.00,0.0371
802.00,0.0353
789.00,0.0341
776.00,0.0333
763.00,0.0329
750.00,0.0327
737.00,0.0329
724.00,0.0338
711.00,0.0367
698.00,0.0376
685.00,0.0385
672.00,0.0503
659.00,0.0569
646.00,0.0570
633.00,0.0596
620.00,0.0658
607.00,0.0704
594.00,0.0715
581.00,0.0763
568.00,0.0815
555.00,0.0813
542.00,0.0817
529.00,0.0824
516.00,0.0839
503.00,0.0852
490.00,0.0854
477.00,0.0889
464.00,0.0888
451.00,0.0849
438.00,0.0798
425.00,0.0770
412.00,0.0755
400.00,0.0745