File: FTIR/Clancy/HPMC_polymer_v2600_5600_ECE_scan1.csv
Created as New Dataset,Sample 286 By YargerLab Date Saturday, October 18 2025
cm-1,A
4000.00,0.0059
3987.00,0.0059
3974.00,0.0059
3961.00,0.0059
3948.00,0.0059
3935.00,0.0059
3922.00,0.0059
3909.00,0.0058
3896.00,0.0059
3883.00,0.0058
3870.00,0.0059
3857.00,0.0059
3844.00,0.0058
3831.00,0.0057
3818.00,0.0057
3805.00,0.0057
3792.00,0.0057
3779.00,0.0057
3766.00,0.0057
3753.00,0.0057
3740.00,0.0056
3727.00,0.0056
3714.00,0.0057
3701.00,0.0055
3688.00,0.0055
3675.00,0.0056
3662.00,0.0057
3649.00,0.0058
3636.00,0.0059
3623.00,0.0061
3610.00,0.0066
3597.00,0.0067
3584.00,0.0070
3571.00,0.0074
3558.00,0.0079
3545.00,0.0085
3532.00,0.0092
3519.00,0.0103
3506.00,0.0114
3493.00,0.0128
3480.00,0.0139
3467.00,0.0146
3454.00,0.0146
3441.00,0.0143
3428.00,0.0138
3415.00,0.0133
3402.00,0.0128
3389.00,0.0122
3376.00,0.0116
3363.00,0.0110
3350.00,0.0105
3337.00,0.0101
3324.00,0.0096
3311.00,0.0093
3298.00,0.0089
3285.00,0.0087
3272.00,0.0085
3259.00,0.0082
3246.00,0.0080
3233.00,0.0078
3220.00,0.0076
3207.00,0.0074
3194.00,0.0073
3181.00,0.0072
3168.00,0.0071
3155.00,0.0070
3142.00,0.0069
3129.00,0.0069
3116.00,0.0068
3103.00,0.0068
3090.00,0.0068
3077.00,0.0067
3064.00,0.0068
3051.00,0.0068
3038.00,0.0069
3025.00,0.0070
3012.00,0.0074
2999.00,0.0089
2986.00,0.0113
2973.00,0.0125
2960.00,0.0132
2947.00,0.0157
2934.00,0.0196
2921.00,0.0205
2908.00,0.0213
2895.00,0.0215
2882.00,0.0207
2869.00,0.0190
2856.00,0.0170
2843.00,0.0176
2830.00,0.0183
2817.00,0.0165
2804.00,0.0132
2791.00,0.0110
2778.00,0.0103
2765.00,0.0099
2752.00,0.0097
2739.00,0.0095
2726.00,0.0093
2713.00,0.0091
2700.00,0.0090
2687.00,0.0089
2674.00,0.0089
2661.00,0.0091
2648.00,0.0092
2635.00,0.0091
2622.00,0.0091
2609.00,0.0089
2596.00,0.0089
2583.00,0.0088
2570.00,0.0086
2557.00,0.0085
2544.00,0.0083
2531.00,0.0083
2518.00,0.0083
2505.00,0.0081
2492.00,0.0082
2479.00,0.0082
2466.00,0.0083
2453.00,0.0083
2440.00,0.0082
2427.00,0.0081
2414.00,0.0081
2401.00,0.0080
2388.00,0.0079
2375.00,0.0076
2362.00,0.0076
2349.00,0.0077
2336.00,0.0080
2323.00,0.0088
2310.00,0.0080
2297.00,0.0084
2284.00,0.0089
2271.00,0.0086
2258.00,0.0085
2245.00,0.0084
2232.00,0.0081
2219.00,0.0081
2206.00,0.0082
2193.00,0.0084
2180.00,0.0078
2167.00,0.0084
2154.00,0.0059
2141.00,0.0065
2128.00,0.0071
2115.00,0.0082
2102.00,0.0081
2089.00,0.0080
2076.00,0.0082
2063.00,0.0082
2050.00,0.0086
2037.00,0.0075
2024.00,0.0071
2011.00,0.0068
1998.00,0.0073
1985.00,0.0078
1972.00,0.0066
1959.00,0.0065
1946.00,0.0070
1933.00,0.0073
1920.00,0.0076
1907.00,0.0074
1894.00,0.0076
1881.00,0.0075
1868.00,0.0077
1855.00,0.0077
1842.00,0.0078
1829.00,0.0077
1816.00,0.0077
1803.00,0.0081
1790.00,0.0082
1777.00,0.0082
1764.00,0.0083
1751.00,0.0085
1738.00,0.0086
1725.00,0.0085
1712.00,0.0081
1699.00,0.0062
1686.00,0.0019
1673.00,0.0010
1660.00,0.0029
1647.00,0.0070
1634.00,0.0097
1621.00,0.0102
1608.00,0.0099
1595.00,0.0092
1582.00,0.0096
1569.00,0.0093
1556.00,0.0092
1543.00,0.0091
1530.00,0.0090
1517.00,0.0090
1504.00,0.0088
1491.00,0.0089
1478.00,0.0131
1465.00,0.0173
1452.00,0.0202
1439.00,0.0152
1426.00,0.0117
1413.00,0.0162
1400.00,0.0167
1387.00,0.0180
1374.00,0.0229
1361.00,0.0198
1348.00,0.0184
1335.00,0.0201
1322.00,0.0200
1309.00,0.0213
1296.00,0.0164
1283.00,0.0141
1270.00,0.0134
1257.00,0.0135
1244.00,0.0128
1231.00,0.0122
1218.00,0.0158
1205.00,0.0212
1192.00,0.0239
1179.00,0.0229
1166.00,0.0286
1153.00,0.0432
1140.00,0.0505
1127.00,0.0693
1114.00,0.0844
1101.00,0.0889
1088.00,0.0934
1075.00,0.1112
1062.00,0.1278
1049.00,0.1317
1036.00,0.1208
1023.00,0.1093
1010.00,0.0980
997.00,0.0789
984.00,0.0612
971.00,0.0515
958.00,0.0577
945.00,0.0688
932.00,0.0607
919.00,0.0544
906.00,0.0479
893.00,0.0439
880.00,0.0386
867.00,0.0334
854.00,0.0327
841.00,0.0316
828.00,0.0300
815.00,0.0296
802.00,0.0283
789.00,0.0274
776.00,0.0269
763.00,0.0266
750.00,0.0263
737.00,0.0262
724.00,0.0265
711.00,0.0282
698.00,0.0284
685.00,0.0289
672.00,0.0356
659.00,0.0398
646.00,0.0398
633.00,0.0414
620.00,0.0454
607.00,0.0481
594.00,0.0491
581.00,0.0517
568.00,0.0551
555.00,0.0552
542.00,0.0556
529.00,0.0561
516.00,0.0569
503.00,0.0580
490.00,0.0589
477.00,0.0603
464.00,0.0603
451.00,0.0589
438.00,0.0561
425.00,0.0550
412.00,0.0541
400.00,0.0536