File: FTIR/Mary/Jul3/2025_07_03_Polystyrene_Std_MEL_Scan1.csv
Created as New Dataset,Sample 760 By YargerLab Date Tuesday, July 01 2025
cm-1,A
4000.00,0.0018
3987.00,0.0018
3974.00,0.0018
3961.00,0.0018
3948.00,0.0019
3935.00,0.0020
3922.00,0.0020
3909.00,0.0018
3896.00,0.0021
3883.00,0.0021
3870.00,0.0025
3857.00,0.0020
3844.00,0.0022
3831.00,0.0024
3818.00,0.0025
3805.00,0.0024
3792.00,0.0019
3779.00,0.0019
3766.00,0.0022
3753.00,0.0026
3740.00,0.0029
3727.00,0.0025
3714.00,0.0023
3701.00,0.0019
3688.00,0.0024
3675.00,0.0025
3662.00,0.0020
3649.00,0.0030
3636.00,0.0022
3623.00,0.0026
3610.00,0.0031
3597.00,0.0025
3584.00,0.0026
3571.00,0.0026
3558.00,0.0026
3545.00,0.0029
3532.00,0.0029
3519.00,0.0029
3506.00,0.0030
3493.00,0.0031
3480.00,0.0032
3467.00,0.0031
3454.00,0.0032
3441.00,0.0034
3428.00,0.0032
3415.00,0.0033
3402.00,0.0034
3389.00,0.0033
3376.00,0.0033
3363.00,0.0033
3350.00,0.0032
3337.00,0.0031
3324.00,0.0031
3311.00,0.0031
3298.00,0.0030
3285.00,0.0030
3272.00,0.0030
3259.00,0.0029
3246.00,0.0029
3233.00,0.0028
3220.00,0.0027
3207.00,0.0027
3194.00,0.0026
3181.00,0.0025
3168.00,0.0025
3155.00,0.0025
3142.00,0.0023
3129.00,0.0023
3116.00,0.0026
3103.00,0.0036
3090.00,0.0043
3077.00,0.0058
3064.00,0.0074
3051.00,0.0060
3038.00,0.0061
3025.00,0.0154
3012.00,0.0052
2999.00,0.0050
2986.00,0.0032
2973.00,0.0034
2960.00,0.0045
2947.00,0.0072
2934.00,0.0135
2921.00,0.0186
2908.00,0.0145
2895.00,0.0091
2882.00,0.0067
2869.00,0.0056
2856.00,0.0077
2843.00,0.0074
2830.00,0.0033
2817.00,0.0026
2804.00,0.0025
2791.00,0.0023
2778.00,0.0023
2765.00,0.0021
2752.00,0.0020
2739.00,0.0020
2726.00,0.0020
2713.00,0.0020
2700.00,0.0020
2687.00,0.0020
2674.00,0.0020
2661.00,0.0022
2648.00,0.0023
2635.00,0.0023
2622.00,0.0021
2609.00,0.0021
2596.00,0.0020
2583.00,0.0019
2570.00,0.0017
2557.00,0.0016
2544.00,0.0015
2531.00,0.0015
2518.00,0.0015
2505.00,0.0014
2492.00,0.0014
2479.00,0.0013
2466.00,0.0013
2453.00,0.0014
2440.00,0.0012
2427.00,0.0011
2414.00,0.0011
2401.00,0.0009
2388.00,0.0010
2375.00,0.0009
2362.00,0.0011
2349.00,0.0012
2336.00,0.0015
2323.00,0.0021
2310.00,0.0017
2297.00,0.0017
2284.00,0.0019
2271.00,0.0014
2258.00,0.0014
2245.00,0.0010
2232.00,0.0010
2219.00,0.0012
2206.00,0.0011
2193.00,0.0011
2180.00,0.0005
2167.00,0.0016
2154.00,-0.0010
2141.00,-0.0005
2128.00,-0.0001
2115.00,0.0007
2102.00,0.0007
2089.00,0.0008
2076.00,0.0009
2063.00,0.0006
2050.00,0.0014
2037.00,0.0008
2024.00,0.0004
2011.00,-0.0003
1998.00,0.0004
1985.00,0.0014
1972.00,0.0003
1959.00,0.0007
1946.00,0.0020
1933.00,0.0014
1920.00,0.0008
1907.00,0.0008
1894.00,0.0012
1881.00,0.0020
1868.00,0.0023
1855.00,0.0013
1842.00,0.0013
1829.00,0.0013
1816.00,0.0018
1803.00,0.0029
1790.00,0.0024
1777.00,0.0022
1764.00,0.0024
1751.00,0.0039
1738.00,0.0044
1725.00,0.0038
1712.00,0.0035
1699.00,0.0033
1686.00,0.0032
1673.00,0.0037
1660.00,0.0034
1647.00,0.0032
1634.00,0.0030
1621.00,0.0032
1608.00,0.0070
1595.00,0.0089
1582.00,0.0071
1569.00,0.0027
1556.00,0.0031
1543.00,0.0037
1530.00,0.0029
1517.00,0.0029
1504.00,0.0046
1491.00,0.0371
1478.00,0.0058
1465.00,0.0062
1452.00,0.0408
1439.00,0.0158
1426.00,0.0059
1413.00,0.0047
1400.00,0.0047
1387.00,0.0068
1374.00,0.0097
1361.00,0.0091
1348.00,0.0083
1335.00,0.0077
1322.00,0.0081
1309.00,0.0083
1296.00,0.0068
1283.00,0.0064
1270.00,0.0056
1257.00,0.0053
1244.00,0.0054
1231.00,0.0052
1218.00,0.0052
1205.00,0.0063
1192.00,0.0076
1179.00,0.0095
1166.00,0.0065
1153.00,0.0103
1140.00,0.0053
1127.00,0.0051
1114.00,0.0067
1101.00,0.0071
1088.00,0.0086
1075.00,0.0125
1062.00,0.0124
1049.00,0.0091
1036.00,0.0118
1023.00,0.0188
1010.00,0.0112
997.00,0.0091
984.00,0.0099
971.00,0.0095
958.00,0.0089
945.00,0.0086
932.00,0.0065
919.00,0.0074
906.00,0.0168
893.00,0.0067
880.00,0.0053
867.00,0.0047
854.00,0.0048
841.00,0.0089
828.00,0.0046
815.00,0.0047
802.00,0.0054
789.00,0.0091
776.00,0.0208
763.00,0.0533
750.00,0.0699
737.00,0.0304
724.00,0.0095
711.00,0.0194
698.00,0.1832
685.00,0.0739
672.00,0.0328
659.00,0.0203
646.00,0.0132
633.00,0.0144
620.00,0.0171
607.00,0.0135
594.00,0.0151
581.00,0.0188
568.00,0.0309
555.00,0.0436
542.00,0.0694
529.00,0.0511
516.00,0.0264
503.00,0.0190
490.00,0.0151
477.00,0.0139
464.00,0.0127
451.00,0.0120
438.00,0.0115
425.00,0.0109
412.00,0.0098
400.00,0.0089