File: FTIR/Mary/Jul3/2025_07_03_Polystyrene_Std_MEL_Scan2.csv
Created as New Dataset,Sample 761 By YargerLab Date Thursday, July 03 2025
cm-1,A
4000.00,0.0016
3987.00,0.0016
3974.00,0.0016
3961.00,0.0016
3948.00,0.0017
3935.00,0.0017
3922.00,0.0018
3909.00,0.0016
3896.00,0.0018
3883.00,0.0018
3870.00,0.0021
3857.00,0.0017
3844.00,0.0019
3831.00,0.0021
3818.00,0.0021
3805.00,0.0020
3792.00,0.0017
3779.00,0.0016
3766.00,0.0019
3753.00,0.0023
3740.00,0.0026
3727.00,0.0022
3714.00,0.0019
3701.00,0.0016
3688.00,0.0020
3675.00,0.0021
3662.00,0.0016
3649.00,0.0025
3636.00,0.0019
3623.00,0.0021
3610.00,0.0023
3597.00,0.0019
3584.00,0.0020
3571.00,0.0019
3558.00,0.0019
3545.00,0.0021
3532.00,0.0019
3519.00,0.0019
3506.00,0.0019
3493.00,0.0019
3480.00,0.0019
3467.00,0.0018
3454.00,0.0017
3441.00,0.0017
3428.00,0.0016
3415.00,0.0016
3402.00,0.0015
3389.00,0.0015
3376.00,0.0013
3363.00,0.0013
3350.00,0.0012
3337.00,0.0011
3324.00,0.0011
3311.00,0.0011
3298.00,0.0011
3285.00,0.0011
3272.00,0.0011
3259.00,0.0011
3246.00,0.0012
3233.00,0.0012
3220.00,0.0012
3207.00,0.0013
3194.00,0.0012
3181.00,0.0012
3168.00,0.0012
3155.00,0.0013
3142.00,0.0013
3129.00,0.0013
3116.00,0.0015
3103.00,0.0022
3090.00,0.0027
3077.00,0.0037
3064.00,0.0047
3051.00,0.0039
3038.00,0.0040
3025.00,0.0101
3012.00,0.0034
2999.00,0.0033
2986.00,0.0020
2973.00,0.0021
2960.00,0.0027
2947.00,0.0044
2934.00,0.0084
2921.00,0.0118
2908.00,0.0090
2895.00,0.0055
2882.00,0.0039
2869.00,0.0033
2856.00,0.0047
2843.00,0.0047
2830.00,0.0020
2817.00,0.0016
2804.00,0.0016
2791.00,0.0014
2778.00,0.0015
2765.00,0.0014
2752.00,0.0014
2739.00,0.0013
2726.00,0.0013
2713.00,0.0013
2700.00,0.0013
2687.00,0.0013
2674.00,0.0013
2661.00,0.0015
2648.00,0.0016
2635.00,0.0017
2622.00,0.0015
2609.00,0.0014
2596.00,0.0014
2583.00,0.0012
2570.00,0.0011
2557.00,0.0010
2544.00,0.0011
2531.00,0.0010
2518.00,0.0009
2505.00,0.0009
2492.00,0.0009
2479.00,0.0008
2466.00,0.0009
2453.00,0.0010
2440.00,0.0008
2427.00,0.0007
2414.00,0.0006
2401.00,0.0005
2388.00,0.0005
2375.00,0.0004
2362.00,0.0003
2349.00,-0.0001
2336.00,0.0006
2323.00,0.0015
2310.00,0.0011
2297.00,0.0012
2284.00,0.0015
2271.00,0.0011
2258.00,0.0008
2245.00,0.0008
2232.00,0.0009
2219.00,0.0006
2206.00,0.0007
2193.00,0.0007
2180.00,0.0001
2167.00,0.0012
2154.00,-0.0012
2141.00,-0.0007
2128.00,-0.0003
2115.00,0.0004
2102.00,0.0003
2089.00,0.0005
2076.00,0.0005
2063.00,0.0004
2050.00,0.0012
2037.00,0.0007
2024.00,-0.0002
2011.00,-0.0003
1998.00,0.0001
1985.00,0.0011
1972.00,0.0002
1959.00,0.0001
1946.00,0.0011
1933.00,0.0007
1920.00,0.0006
1907.00,0.0002
1894.00,0.0007
1881.00,0.0012
1868.00,0.0014
1855.00,0.0008
1842.00,0.0008
1829.00,0.0006
1816.00,0.0010
1803.00,0.0019
1790.00,0.0016
1777.00,0.0013
1764.00,0.0015
1751.00,0.0027
1738.00,0.0027
1725.00,0.0022
1712.00,0.0022
1699.00,0.0021
1686.00,0.0018
1673.00,0.0022
1660.00,0.0019
1647.00,0.0020
1634.00,0.0018
1621.00,0.0020
1608.00,0.0043
1595.00,0.0057
1582.00,0.0045
1569.00,0.0018
1556.00,0.0021
1543.00,0.0027
1530.00,0.0020
1517.00,0.0020
1504.00,0.0031
1491.00,0.0252
1478.00,0.0037
1465.00,0.0037
1452.00,0.0265
1439.00,0.0099
1426.00,0.0030
1413.00,0.0024
1400.00,0.0027
1387.00,0.0039
1374.00,0.0056
1361.00,0.0052
1348.00,0.0047
1335.00,0.0041
1322.00,0.0043
1309.00,0.0044
1296.00,0.0036
1283.00,0.0033
1270.00,0.0027
1257.00,0.0026
1244.00,0.0027
1231.00,0.0027
1218.00,0.0028
1205.00,0.0035
1192.00,0.0046
1179.00,0.0059
1166.00,0.0033
1153.00,0.0059
1140.00,0.0027
1127.00,0.0023
1114.00,0.0029
1101.00,0.0030
1088.00,0.0041
1075.00,0.0065
1062.00,0.0058
1049.00,0.0033
1036.00,0.0049
1023.00,0.0100
1010.00,0.0050
997.00,0.0036
984.00,0.0044
971.00,0.0050
958.00,0.0050
945.00,0.0050
932.00,0.0036
919.00,0.0044
906.00,0.0109
893.00,0.0036
880.00,0.0026
867.00,0.0024
854.00,0.0024
841.00,0.0053
828.00,0.0022
815.00,0.0022
802.00,0.0027
789.00,0.0055
776.00,0.0137
763.00,0.0365
750.00,0.0486
737.00,0.0206
724.00,0.0054
711.00,0.0122
698.00,0.1264
685.00,0.0534
672.00,0.0222
659.00,0.0126
646.00,0.0071
633.00,0.0081
620.00,0.0097
607.00,0.0072
594.00,0.0081
581.00,0.0109
568.00,0.0199
555.00,0.0291
542.00,0.0486
529.00,0.0360
516.00,0.0168
503.00,0.0116
490.00,0.0088
477.00,0.0086
464.00,0.0072
451.00,0.0070
438.00,0.0061
425.00,0.0063
412.00,0.0072
400.00,0.0058