File: FTIR/Mary/2024_07_27_HIFaFilm_Unstretched_5.csv
Created as New Dataset,Sample 288 By YargerLab Date Saturday, July 27 2024
cm-1,A
4000.00,-0.0005
3987.00,-0.0005
3974.00,-0.0006
3961.00,-0.0006
3948.00,-0.0006
3935.00,-0.0006
3922.00,-0.0006
3909.00,-0.0006
3896.00,-0.0006
3883.00,-0.0007
3870.00,-0.0007
3857.00,-0.0007
3844.00,-0.0006
3831.00,-0.0007
3818.00,-0.0007
3805.00,-0.0006
3792.00,-0.0006
3779.00,-0.0006
3766.00,-0.0006
3753.00,-0.0006
3740.00,-0.0006
3727.00,-0.0006
3714.00,-0.0006
3701.00,-0.0005
3688.00,-0.0005
3675.00,-0.0004
3662.00,-0.0002
3649.00,-0.0001
3636.00,0.0001
3623.00,0.0003
3610.00,0.0005
3597.00,0.0008
3584.00,0.0010
3571.00,0.0013
3558.00,0.0016
3545.00,0.0018
3532.00,0.0021
3519.00,0.0023
3506.00,0.0026
3493.00,0.0029
3480.00,0.0031
3467.00,0.0034
3454.00,0.0036
3441.00,0.0039
3428.00,0.0041
3415.00,0.0044
3402.00,0.0046
3389.00,0.0049
3376.00,0.0051
3363.00,0.0055
3350.00,0.0059
3337.00,0.0063
3324.00,0.0070
3311.00,0.0077
3298.00,0.0086
3285.00,0.0094
3272.00,0.0098
3259.00,0.0092
3246.00,0.0084
3233.00,0.0078
3220.00,0.0072
3207.00,0.0068
3194.00,0.0063
3181.00,0.0059
3168.00,0.0054
3155.00,0.0050
3142.00,0.0047
3129.00,0.0045
3116.00,0.0044
3103.00,0.0044
3090.00,0.0045
3077.00,0.0045
3064.00,0.0044
3051.00,0.0041
3038.00,0.0037
3025.00,0.0034
3012.00,0.0031
2999.00,0.0031
2986.00,0.0034
2973.00,0.0041
2960.00,0.0044
2947.00,0.0040
2934.00,0.0044
2921.00,0.0042
2908.00,0.0035
2895.00,0.0031
2882.00,0.0031
2869.00,0.0030
2856.00,0.0026
2843.00,0.0022
2830.00,0.0019
2817.00,0.0018
2804.00,0.0017
2791.00,0.0016
2778.00,0.0015
2765.00,0.0013
2752.00,0.0011
2739.00,0.0010
2726.00,0.0009
2713.00,0.0008
2700.00,0.0007
2687.00,0.0007
2674.00,0.0006
2661.00,0.0005
2648.00,0.0004
2635.00,0.0004
2622.00,0.0003
2609.00,0.0003
2596.00,0.0003
2583.00,0.0002
2570.00,0.0002
2557.00,0.0002
2544.00,0.0001
2531.00,0.0001
2518.00,0.0000
2505.00,0.0000
2492.00,-0.0000
2479.00,-0.0001
2466.00,-0.0001
2453.00,-0.0001
2440.00,-0.0002
2427.00,-0.0002
2414.00,-0.0002
2401.00,-0.0002
2388.00,-0.0003
2375.00,-0.0003
2362.00,-0.0003
2349.00,-0.0003
2336.00,-0.0004
2323.00,-0.0005
2310.00,-0.0004
2297.00,-0.0004
2284.00,-0.0004
2271.00,-0.0004
2258.00,-0.0004
2245.00,-0.0004
2232.00,-0.0004
2219.00,-0.0003
2206.00,-0.0004
2193.00,-0.0004
2180.00,-0.0002
2167.00,-0.0004
2154.00,0.0000
2141.00,-0.0002
2128.00,-0.0004
2115.00,-0.0003
2102.00,-0.0004
2089.00,-0.0004
2076.00,-0.0004
2063.00,-0.0004
2050.00,-0.0005
2037.00,-0.0002
2024.00,-0.0003
2011.00,-0.0003
1998.00,-0.0003
1985.00,-0.0005
1972.00,-0.0004
1959.00,-0.0004
1946.00,-0.0005
1933.00,-0.0005
1920.00,-0.0005
1907.00,-0.0005
1894.00,-0.0005
1881.00,-0.0005
1868.00,-0.0006
1855.00,-0.0005
1842.00,-0.0005
1829.00,-0.0006
1816.00,-0.0005
1803.00,-0.0006
1790.00,-0.0004
1777.00,-0.0005
1764.00,-0.0004
1751.00,-0.0001
1738.00,0.0003
1725.00,0.0007
1712.00,0.0015
1699.00,0.0052
1686.00,0.0078
1673.00,0.0106
1660.00,0.0137
1647.00,0.0160
1634.00,0.0172
1621.00,0.0205
1608.00,0.0182
1595.00,0.0129
1582.00,0.0111
1569.00,0.0118
1556.00,0.0144
1543.00,0.0171
1530.00,0.0186
1517.00,0.0190
1504.00,0.0158
1491.00,0.0117
1478.00,0.0089
1465.00,0.0095
1452.00,0.0103
1439.00,0.0098
1426.00,0.0083
1413.00,0.0094
1400.00,0.0103
1387.00,0.0105
1374.00,0.0092
1361.00,0.0080
1348.00,0.0083
1335.00,0.0078
1322.00,0.0075
1309.00,0.0074
1296.00,0.0072
1283.00,0.0074
1270.00,0.0075
1257.00,0.0085
1244.00,0.0097
1231.00,0.0100
1218.00,0.0090
1205.00,0.0071
1192.00,0.0060
1179.00,0.0058
1166.00,0.0066
1153.00,0.0065
1140.00,0.0061
1127.00,0.0065
1114.00,0.0070
1101.00,0.0074
1088.00,0.0086
1075.00,0.0101
1062.00,0.0101
1049.00,0.0091
1036.00,0.0078
1023.00,0.0067
1010.00,0.0050
997.00,0.0039
984.00,0.0038
971.00,0.0042
958.00,0.0039
945.00,0.0038
932.00,0.0038
919.00,0.0033
906.00,0.0030
893.00,0.0030
880.00,0.0030
867.00,0.0030
854.00,0.0034
841.00,0.0039
828.00,0.0048
815.00,0.0051
802.00,0.0057
789.00,0.0068
776.00,0.0077
763.00,0.0084
750.00,0.0091
737.00,0.0096
724.00,0.0112
711.00,0.0131
698.00,0.0148
685.00,0.0152
672.00,0.0155
659.00,0.0159
646.00,0.0164
633.00,0.0170
620.00,0.0177
607.00,0.0178
594.00,0.0180
581.00,0.0183
568.00,0.0191
555.00,0.0198
542.00,0.0206
529.00,0.0214
516.00,0.0221
503.00,0.0226
490.00,0.0232
477.00,0.0238
464.00,0.0238
451.00,0.0238
438.00,0.0229
425.00,0.0226
412.00,0.0230
400.00,0.0208