File: FTIR/Mary/2024_11_01_THCa_powder_Scan1.csv
Created as New Dataset,Sample 024 By YargerLab Date Friday, November 01 2024
cm-1,A
4000.00,0.0075
3987.00,0.0075
3974.00,0.0075
3961.00,0.0075
3948.00,0.0074
3935.00,0.0074
3922.00,0.0074
3909.00,0.0074
3896.00,0.0073
3883.00,0.0073
3870.00,0.0073
3857.00,0.0072
3844.00,0.0072
3831.00,0.0072
3818.00,0.0071
3805.00,0.0070
3792.00,0.0071
3779.00,0.0071
3766.00,0.0070
3753.00,0.0069
3740.00,0.0070
3727.00,0.0071
3714.00,0.0070
3701.00,0.0070
3688.00,0.0068
3675.00,0.0066
3662.00,0.0065
3649.00,0.0065
3636.00,0.0066
3623.00,0.0069
3610.00,0.0069
3597.00,0.0069
3584.00,0.0069
3571.00,0.0068
3558.00,0.0069
3545.00,0.0069
3532.00,0.0071
3519.00,0.0068
3506.00,0.0064
3493.00,0.0069
3480.00,0.0071
3467.00,0.0072
3454.00,0.0073
3441.00,0.0074
3428.00,0.0075
3415.00,0.0075
3402.00,0.0072
3389.00,0.0075
3376.00,0.0083
3363.00,0.0088
3350.00,0.0093
3337.00,0.0098
3324.00,0.0104
3311.00,0.0110
3298.00,0.0116
3285.00,0.0124
3272.00,0.0131
3259.00,0.0145
3246.00,0.0157
3233.00,0.0171
3220.00,0.0191
3207.00,0.0201
3194.00,0.0206
3181.00,0.0214
3168.00,0.0221
3155.00,0.0232
3142.00,0.0248
3129.00,0.0266
3116.00,0.0275
3103.00,0.0294
3090.00,0.0315
3077.00,0.0353
3064.00,0.0379
3051.00,0.0384
3038.00,0.0397
3025.00,0.0408
3012.00,0.0412
2999.00,0.0426
2986.00,0.0517
2973.00,0.0608
2960.00,0.0722
2947.00,0.0717
2934.00,0.0841
2921.00,0.0848
2908.00,0.0742
2895.00,0.0731
2882.00,0.0700
2869.00,0.0725
2856.00,0.0678
2843.00,0.0611
2830.00,0.0625
2817.00,0.0516
2804.00,0.0472
2791.00,0.0440
2778.00,0.0408
2765.00,0.0386
2752.00,0.0378
2739.00,0.0374
2726.00,0.0372
2713.00,0.0355
2700.00,0.0349
2687.00,0.0352
2674.00,0.0350
2661.00,0.0346
2648.00,0.0342
2635.00,0.0334
2622.00,0.0328
2609.00,0.0327
2596.00,0.0325
2583.00,0.0341
2570.00,0.0349
2557.00,0.0343
2544.00,0.0340
2531.00,0.0330
2518.00,0.0325
2505.00,0.0303
2492.00,0.0269
2479.00,0.0245
2466.00,0.0228
2453.00,0.0218
2440.00,0.0204
2427.00,0.0191
2414.00,0.0180
2401.00,0.0170
2388.00,0.0163
2375.00,0.0155
2362.00,0.0158
2349.00,0.0143
2336.00,0.0147
2323.00,0.0139
2310.00,0.0135
2297.00,0.0130
2284.00,0.0124
2271.00,0.0118
2258.00,0.0109
2245.00,0.0106
2232.00,0.0102
2219.00,0.0102
2206.00,0.0102
2193.00,0.0102
2180.00,0.0099
2167.00,0.0098
2154.00,0.0087
2141.00,0.0090
2128.00,0.0093
2115.00,0.0095
2102.00,0.0092
2089.00,0.0092
2076.00,0.0087
2063.00,0.0087
2050.00,0.0086
2037.00,0.0087
2024.00,0.0085
2011.00,0.0080
1998.00,0.0081
1985.00,0.0082
1972.00,0.0081
1959.00,0.0082
1946.00,0.0080
1933.00,0.0084
1920.00,0.0087
1907.00,0.0090
1894.00,0.0090
1881.00,0.0090
1868.00,0.0094
1855.00,0.0094
1842.00,0.0096
1829.00,0.0097
1816.00,0.0094
1803.00,0.0098
1790.00,0.0100
1777.00,0.0101
1764.00,0.0102
1751.00,0.0105
1738.00,0.0103
1725.00,0.0103
1712.00,0.0104
1699.00,0.0116
1686.00,0.0128
1673.00,0.0162
1660.00,0.0208
1647.00,0.0278
1634.00,0.0638
1621.00,0.1662
1608.00,0.2275
1595.00,0.1298
1582.00,0.0813
1569.00,0.1246
1556.00,0.0671
1543.00,0.0390
1530.00,0.0341
1517.00,0.0376
1504.00,0.0454
1491.00,0.0502
1478.00,0.0437
1465.00,0.0894
1452.00,0.0997
1439.00,0.0965
1426.00,0.0711
1413.00,0.0489
1400.00,0.0928
1387.00,0.0806
1374.00,0.1248
1361.00,0.1125
1348.00,0.0698
1335.00,0.0434
1322.00,0.0503
1309.00,0.0481
1296.00,0.0573
1283.00,0.0904
1270.00,0.1583
1257.00,0.2402
1244.00,0.2214
1231.00,0.1499
1218.00,0.0799
1205.00,0.0653
1192.00,0.1724
1179.00,0.1231
1166.00,0.0693
1153.00,0.0493
1140.00,0.0622
1127.00,0.1426
1114.00,0.1468
1101.00,0.0698
1088.00,0.0435
1075.00,0.0853
1062.00,0.0482
1049.00,0.0601
1036.00,0.0684
1023.00,0.0384
1010.00,0.0454
997.00,0.0381
984.00,0.0319
971.00,0.0389
958.00,0.0327
945.00,0.0527
932.00,0.0513
919.00,0.0673
906.00,0.1053
893.00,0.0951
880.00,0.0590
867.00,0.0584
854.00,0.1031
841.00,0.0830
828.00,0.0727
815.00,0.0575
802.00,0.0466
789.00,0.0651
776.00,0.0754
763.00,0.0682
750.00,0.0617
737.00,0.0711
724.00,0.0872
711.00,0.1297
698.00,0.0622
685.00,0.0454
672.00,0.0375
659.00,0.0490
646.00,0.0548
633.00,0.0465
620.00,0.0491
607.00,0.0403
594.00,0.0750
581.00,0.0339
568.00,0.0402
555.00,0.0333
542.00,0.0330
529.00,0.0339
516.00,0.0305
503.00,0.0756
490.00,0.0611
477.00,0.0410
464.00,0.0360
451.00,0.0322
438.00,0.0568
425.00,0.0779
412.00,0.0649
400.00,0.0441