File: FTIR/Mary/2024_11_01_THCa_powder_Scan2.csv
Created as New Dataset,Sample 025 By YargerLab Date Friday, November 01 2024
cm-1,A
4000.00,0.0064
3987.00,0.0064
3974.00,0.0064
3961.00,0.0064
3948.00,0.0064
3935.00,0.0063
3922.00,0.0063
3909.00,0.0063
3896.00,0.0063
3883.00,0.0063
3870.00,0.0063
3857.00,0.0063
3844.00,0.0062
3831.00,0.0062
3818.00,0.0062
3805.00,0.0061
3792.00,0.0060
3779.00,0.0060
3766.00,0.0060
3753.00,0.0061
3740.00,0.0060
3727.00,0.0060
3714.00,0.0059
3701.00,0.0059
3688.00,0.0058
3675.00,0.0056
3662.00,0.0053
3649.00,0.0054
3636.00,0.0055
3623.00,0.0058
3610.00,0.0059
3597.00,0.0058
3584.00,0.0058
3571.00,0.0058
3558.00,0.0058
3545.00,0.0059
3532.00,0.0059
3519.00,0.0053
3506.00,0.0052
3493.00,0.0058
3480.00,0.0059
3467.00,0.0060
3454.00,0.0060
3441.00,0.0061
3428.00,0.0060
3415.00,0.0060
3402.00,0.0057
3389.00,0.0062
3376.00,0.0073
3363.00,0.0079
3350.00,0.0085
3337.00,0.0091
3324.00,0.0098
3311.00,0.0104
3298.00,0.0111
3285.00,0.0120
3272.00,0.0128
3259.00,0.0143
3246.00,0.0156
3233.00,0.0170
3220.00,0.0191
3207.00,0.0201
3194.00,0.0208
3181.00,0.0216
3168.00,0.0224
3155.00,0.0236
3142.00,0.0253
3129.00,0.0272
3116.00,0.0282
3103.00,0.0303
3090.00,0.0325
3077.00,0.0364
3064.00,0.0391
3051.00,0.0398
3038.00,0.0411
3025.00,0.0422
3012.00,0.0426
2999.00,0.0438
2986.00,0.0533
2973.00,0.0627
2960.00,0.0748
2947.00,0.0747
2934.00,0.0876
2921.00,0.0880
2908.00,0.0770
2895.00,0.0757
2882.00,0.0725
2869.00,0.0755
2856.00,0.0703
2843.00,0.0633
2830.00,0.0646
2817.00,0.0531
2804.00,0.0485
2791.00,0.0451
2778.00,0.0417
2765.00,0.0394
2752.00,0.0385
2739.00,0.0381
2726.00,0.0378
2713.00,0.0361
2700.00,0.0354
2687.00,0.0357
2674.00,0.0355
2661.00,0.0352
2648.00,0.0348
2635.00,0.0339
2622.00,0.0333
2609.00,0.0331
2596.00,0.0329
2583.00,0.0346
2570.00,0.0355
2557.00,0.0349
2544.00,0.0345
2531.00,0.0334
2518.00,0.0329
2505.00,0.0305
2492.00,0.0269
2479.00,0.0243
2466.00,0.0226
2453.00,0.0214
2440.00,0.0200
2427.00,0.0186
2414.00,0.0174
2401.00,0.0164
2388.00,0.0156
2375.00,0.0149
2362.00,0.0142
2349.00,0.0137
2336.00,0.0133
2323.00,0.0128
2310.00,0.0124
2297.00,0.0120
2284.00,0.0115
2271.00,0.0108
2258.00,0.0100
2245.00,0.0097
2232.00,0.0092
2219.00,0.0093
2206.00,0.0094
2193.00,0.0091
2180.00,0.0091
2167.00,0.0088
2154.00,0.0076
2141.00,0.0081
2128.00,0.0083
2115.00,0.0085
2102.00,0.0082
2089.00,0.0082
2076.00,0.0077
2063.00,0.0077
2050.00,0.0078
2037.00,0.0078
2024.00,0.0074
2011.00,0.0068
1998.00,0.0070
1985.00,0.0073
1972.00,0.0072
1959.00,0.0072
1946.00,0.0071
1933.00,0.0074
1920.00,0.0078
1907.00,0.0080
1894.00,0.0081
1881.00,0.0082
1868.00,0.0083
1855.00,0.0087
1842.00,0.0088
1829.00,0.0087
1816.00,0.0086
1803.00,0.0090
1790.00,0.0092
1777.00,0.0093
1764.00,0.0096
1751.00,0.0097
1738.00,0.0097
1725.00,0.0098
1712.00,0.0099
1699.00,0.0113
1686.00,0.0126
1673.00,0.0164
1660.00,0.0218
1647.00,0.0289
1634.00,0.0670
1621.00,0.1717
1608.00,0.2353
1595.00,0.1342
1582.00,0.0830
1569.00,0.1296
1556.00,0.0693
1543.00,0.0389
1530.00,0.0342
1517.00,0.0376
1504.00,0.0464
1491.00,0.0510
1478.00,0.0446
1465.00,0.0924
1452.00,0.1026
1439.00,0.0986
1426.00,0.0729
1413.00,0.0504
1400.00,0.0955
1387.00,0.0828
1374.00,0.1287
1361.00,0.1162
1348.00,0.0716
1335.00,0.0441
1322.00,0.0514
1309.00,0.0489
1296.00,0.0590
1283.00,0.0927
1270.00,0.1622
1257.00,0.2463
1244.00,0.2280
1231.00,0.1545
1218.00,0.0812
1205.00,0.0664
1192.00,0.1778
1179.00,0.1268
1166.00,0.0705
1153.00,0.0495
1140.00,0.0636
1127.00,0.1469
1114.00,0.1506
1101.00,0.0706
1088.00,0.0433
1075.00,0.0867
1062.00,0.0484
1049.00,0.0604
1036.00,0.0689
1023.00,0.0377
1010.00,0.0452
997.00,0.0375
984.00,0.0312
971.00,0.0385
958.00,0.0318
945.00,0.0529
932.00,0.0516
919.00,0.0682
906.00,0.1067
893.00,0.0967
880.00,0.0594
867.00,0.0595
854.00,0.1053
841.00,0.0847
828.00,0.0739
815.00,0.0587
802.00,0.0467
789.00,0.0662
776.00,0.0770
763.00,0.0695
750.00,0.0628
737.00,0.0723
724.00,0.0886
711.00,0.1319
698.00,0.0631
685.00,0.0453
672.00,0.0369
659.00,0.0491
646.00,0.0549
633.00,0.0465
620.00,0.0492
607.00,0.0404
594.00,0.0755
581.00,0.0334
568.00,0.0401
555.00,0.0328
542.00,0.0324
529.00,0.0331
516.00,0.0296
503.00,0.0756
490.00,0.0600
477.00,0.0397
464.00,0.0347
451.00,0.0311
438.00,0.0561
425.00,0.0774
412.00,0.0648
400.00,0.0416