File: FTIR/Mary/2024_07_27_HIFaFilm_Unstretched_3.csv
Created as New Dataset,Sample 286 By YargerLab Date Saturday, July 27 2024
cm-1,A
4000.00,0.0005
3987.00,0.0005
3974.00,0.0005
3961.00,0.0005
3948.00,0.0005
3935.00,0.0005
3922.00,0.0005
3909.00,0.0005
3896.00,0.0005
3883.00,0.0005
3870.00,0.0006
3857.00,0.0006
3844.00,0.0005
3831.00,0.0005
3818.00,0.0006
3805.00,0.0005
3792.00,0.0004
3779.00,0.0005
3766.00,0.0005
3753.00,0.0007
3740.00,0.0006
3727.00,0.0005
3714.00,0.0006
3701.00,0.0005
3688.00,0.0007
3675.00,0.0009
3662.00,0.0010
3649.00,0.0014
3636.00,0.0017
3623.00,0.0020
3610.00,0.0024
3597.00,0.0029
3584.00,0.0033
3571.00,0.0039
3558.00,0.0043
3545.00,0.0048
3532.00,0.0053
3519.00,0.0056
3506.00,0.0062
3493.00,0.0066
3480.00,0.0071
3467.00,0.0076
3454.00,0.0080
3441.00,0.0085
3428.00,0.0090
3415.00,0.0095
3402.00,0.0100
3389.00,0.0104
3376.00,0.0109
3363.00,0.0116
3350.00,0.0123
3337.00,0.0133
3324.00,0.0144
3311.00,0.0159
3298.00,0.0176
3285.00,0.0191
3272.00,0.0199
3259.00,0.0190
3246.00,0.0174
3233.00,0.0160
3220.00,0.0149
3207.00,0.0141
3194.00,0.0132
3181.00,0.0124
3168.00,0.0116
3155.00,0.0108
3142.00,0.0103
3129.00,0.0098
3116.00,0.0096
3103.00,0.0097
3090.00,0.0098
3077.00,0.0099
3064.00,0.0096
3051.00,0.0090
3038.00,0.0084
3025.00,0.0078
3012.00,0.0073
2999.00,0.0072
2986.00,0.0079
2973.00,0.0091
2960.00,0.0098
2947.00,0.0091
2934.00,0.0098
2921.00,0.0096
2908.00,0.0082
2895.00,0.0074
2882.00,0.0075
2869.00,0.0074
2856.00,0.0066
2843.00,0.0057
2830.00,0.0052
2817.00,0.0050
2804.00,0.0049
2791.00,0.0046
2778.00,0.0044
2765.00,0.0041
2752.00,0.0038
2739.00,0.0036
2726.00,0.0035
2713.00,0.0033
2700.00,0.0032
2687.00,0.0030
2674.00,0.0029
2661.00,0.0028
2648.00,0.0027
2635.00,0.0026
2622.00,0.0025
2609.00,0.0024
2596.00,0.0023
2583.00,0.0022
2570.00,0.0022
2557.00,0.0021
2544.00,0.0020
2531.00,0.0019
2518.00,0.0018
2505.00,0.0018
2492.00,0.0017
2479.00,0.0016
2466.00,0.0015
2453.00,0.0015
2440.00,0.0014
2427.00,0.0014
2414.00,0.0013
2401.00,0.0012
2388.00,0.0012
2375.00,0.0011
2362.00,0.0011
2349.00,0.0011
2336.00,0.0010
2323.00,0.0010
2310.00,0.0010
2297.00,0.0010
2284.00,0.0011
2271.00,0.0011
2258.00,0.0011
2245.00,0.0009
2232.00,0.0011
2219.00,0.0011
2206.00,0.0011
2193.00,0.0011
2180.00,0.0011
2167.00,0.0011
2154.00,0.0010
2141.00,0.0010
2128.00,0.0009
2115.00,0.0010
2102.00,0.0010
2089.00,0.0010
2076.00,0.0009
2063.00,0.0009
2050.00,0.0008
2037.00,0.0010
2024.00,0.0008
2011.00,0.0008
1998.00,0.0009
1985.00,0.0009
1972.00,0.0008
1959.00,0.0006
1946.00,0.0005
1933.00,0.0006
1920.00,0.0006
1907.00,0.0006
1894.00,0.0005
1881.00,0.0005
1868.00,0.0004
1855.00,0.0005
1842.00,0.0004
1829.00,0.0005
1816.00,0.0005
1803.00,0.0006
1790.00,0.0008
1777.00,0.0008
1764.00,0.0009
1751.00,0.0013
1738.00,0.0020
1725.00,0.0026
1712.00,0.0040
1699.00,0.0102
1686.00,0.0155
1673.00,0.0212
1660.00,0.0270
1647.00,0.0315
1634.00,0.0338
1621.00,0.0401
1608.00,0.0358
1595.00,0.0255
1582.00,0.0219
1569.00,0.0234
1556.00,0.0279
1543.00,0.0333
1530.00,0.0360
1517.00,0.0365
1504.00,0.0311
1491.00,0.0233
1478.00,0.0182
1465.00,0.0194
1452.00,0.0207
1439.00,0.0198
1426.00,0.0172
1413.00,0.0192
1400.00,0.0208
1387.00,0.0209
1374.00,0.0187
1361.00,0.0163
1348.00,0.0171
1335.00,0.0162
1322.00,0.0158
1309.00,0.0157
1296.00,0.0154
1283.00,0.0158
1270.00,0.0160
1257.00,0.0177
1244.00,0.0199
1231.00,0.0205
1218.00,0.0188
1205.00,0.0155
1192.00,0.0136
1179.00,0.0132
1166.00,0.0145
1153.00,0.0146
1140.00,0.0136
1127.00,0.0144
1114.00,0.0152
1101.00,0.0159
1088.00,0.0179
1075.00,0.0206
1062.00,0.0206
1049.00,0.0192
1036.00,0.0170
1023.00,0.0151
1010.00,0.0123
997.00,0.0104
984.00,0.0099
971.00,0.0105
958.00,0.0098
945.00,0.0096
932.00,0.0097
919.00,0.0088
906.00,0.0084
893.00,0.0084
880.00,0.0083
867.00,0.0082
854.00,0.0090
841.00,0.0097
828.00,0.0112
815.00,0.0117
802.00,0.0127
789.00,0.0143
776.00,0.0160
763.00,0.0171
750.00,0.0182
737.00,0.0191
724.00,0.0217
711.00,0.0250
698.00,0.0279
685.00,0.0282
672.00,0.0288
659.00,0.0295
646.00,0.0302
633.00,0.0311
620.00,0.0321
607.00,0.0323
594.00,0.0325
581.00,0.0332
568.00,0.0342
555.00,0.0355
542.00,0.0367
529.00,0.0379
516.00,0.0389
503.00,0.0397
490.00,0.0407
477.00,0.0416
464.00,0.0419
451.00,0.0415
438.00,0.0392
425.00,0.0372
412.00,0.0379
400.00,0.0370