File: FTIR/Mary/2024_07_27_HIFaFilm_Unstretched_2.csv
Created as New Dataset,Sample 285 By YargerLab Date Saturday, July 27 2024
cm-1,A
4000.00,-0.0001
3987.00,-0.0001
3974.00,-0.0001
3961.00,-0.0001
3948.00,-0.0001
3935.00,-0.0001
3922.00,-0.0001
3909.00,-0.0001
3896.00,-0.0001
3883.00,-0.0001
3870.00,-0.0001
3857.00,-0.0000
3844.00,-0.0001
3831.00,-0.0002
3818.00,-0.0001
3805.00,-0.0001
3792.00,-0.0002
3779.00,-0.0002
3766.00,-0.0001
3753.00,-0.0000
3740.00,-0.0000
3727.00,-0.0001
3714.00,-0.0000
3701.00,-0.0001
3688.00,0.0000
3675.00,0.0002
3662.00,0.0002
3649.00,0.0005
3636.00,0.0006
3623.00,0.0008
3610.00,0.0011
3597.00,0.0013
3584.00,0.0015
3571.00,0.0018
3558.00,0.0020
3545.00,0.0023
3532.00,0.0026
3519.00,0.0028
3506.00,0.0031
3493.00,0.0033
3480.00,0.0036
3467.00,0.0038
3454.00,0.0041
3441.00,0.0043
3428.00,0.0046
3415.00,0.0049
3402.00,0.0051
3389.00,0.0053
3376.00,0.0056
3363.00,0.0060
3350.00,0.0064
3337.00,0.0069
3324.00,0.0075
3311.00,0.0083
3298.00,0.0093
3285.00,0.0101
3272.00,0.0106
3259.00,0.0101
3246.00,0.0093
3233.00,0.0085
3220.00,0.0079
3207.00,0.0075
3194.00,0.0070
3181.00,0.0066
3168.00,0.0061
3155.00,0.0057
3142.00,0.0055
3129.00,0.0052
3116.00,0.0051
3103.00,0.0051
3090.00,0.0052
3077.00,0.0052
3064.00,0.0051
3051.00,0.0048
3038.00,0.0044
3025.00,0.0041
3012.00,0.0038
2999.00,0.0037
2986.00,0.0041
2973.00,0.0048
2960.00,0.0052
2947.00,0.0048
2934.00,0.0052
2921.00,0.0051
2908.00,0.0044
2895.00,0.0039
2882.00,0.0039
2869.00,0.0038
2856.00,0.0034
2843.00,0.0029
2830.00,0.0026
2817.00,0.0025
2804.00,0.0024
2791.00,0.0023
2778.00,0.0021
2765.00,0.0019
2752.00,0.0018
2739.00,0.0017
2726.00,0.0015
2713.00,0.0014
2700.00,0.0014
2687.00,0.0013
2674.00,0.0012
2661.00,0.0011
2648.00,0.0010
2635.00,0.0009
2622.00,0.0009
2609.00,0.0009
2596.00,0.0008
2583.00,0.0008
2570.00,0.0007
2557.00,0.0007
2544.00,0.0006
2531.00,0.0006
2518.00,0.0006
2505.00,0.0006
2492.00,0.0005
2479.00,0.0004
2466.00,0.0004
2453.00,0.0004
2440.00,0.0003
2427.00,0.0003
2414.00,0.0002
2401.00,0.0002
2388.00,0.0002
2375.00,0.0002
2362.00,0.0002
2349.00,0.0002
2336.00,0.0001
2323.00,0.0000
2310.00,0.0001
2297.00,0.0000
2284.00,0.0001
2271.00,0.0001
2258.00,0.0001
2245.00,0.0000
2232.00,0.0002
2219.00,0.0002
2206.00,0.0001
2193.00,0.0001
2180.00,0.0002
2167.00,0.0003
2154.00,0.0003
2141.00,0.0002
2128.00,0.0000
2115.00,0.0001
2102.00,0.0001
2089.00,0.0001
2076.00,-0.0000
2063.00,0.0001
2050.00,-0.0001
2037.00,0.0001
2024.00,0.0000
2011.00,-0.0002
1998.00,0.0000
1985.00,-0.0001
1972.00,-0.0001
1959.00,0.0000
1946.00,-0.0001
1933.00,-0.0001
1920.00,-0.0003
1907.00,-0.0001
1894.00,-0.0002
1881.00,-0.0002
1868.00,-0.0002
1855.00,-0.0002
1842.00,-0.0003
1829.00,-0.0002
1816.00,-0.0003
1803.00,-0.0003
1790.00,-0.0001
1777.00,-0.0002
1764.00,-0.0001
1751.00,0.0002
1738.00,0.0008
1725.00,0.0011
1712.00,0.0019
1699.00,0.0061
1686.00,0.0085
1673.00,0.0117
1660.00,0.0150
1647.00,0.0175
1634.00,0.0188
1621.00,0.0227
1608.00,0.0205
1595.00,0.0147
1582.00,0.0127
1569.00,0.0136
1556.00,0.0161
1543.00,0.0191
1530.00,0.0207
1517.00,0.0209
1504.00,0.0176
1491.00,0.0131
1478.00,0.0101
1465.00,0.0108
1452.00,0.0116
1439.00,0.0111
1426.00,0.0096
1413.00,0.0108
1400.00,0.0119
1387.00,0.0120
1374.00,0.0106
1361.00,0.0091
1348.00,0.0097
1335.00,0.0091
1322.00,0.0088
1309.00,0.0087
1296.00,0.0085
1283.00,0.0088
1270.00,0.0089
1257.00,0.0099
1244.00,0.0112
1231.00,0.0116
1218.00,0.0106
1205.00,0.0085
1192.00,0.0074
1179.00,0.0071
1166.00,0.0079
1153.00,0.0080
1140.00,0.0075
1127.00,0.0080
1114.00,0.0086
1101.00,0.0091
1088.00,0.0104
1075.00,0.0119
1062.00,0.0119
1049.00,0.0110
1036.00,0.0096
1023.00,0.0084
1010.00,0.0066
997.00,0.0054
984.00,0.0051
971.00,0.0056
958.00,0.0052
945.00,0.0050
932.00,0.0051
919.00,0.0045
906.00,0.0042
893.00,0.0042
880.00,0.0042
867.00,0.0041
854.00,0.0046
841.00,0.0051
828.00,0.0062
815.00,0.0065
802.00,0.0071
789.00,0.0083
776.00,0.0094
763.00,0.0101
750.00,0.0108
737.00,0.0115
724.00,0.0132
711.00,0.0154
698.00,0.0173
685.00,0.0176
672.00,0.0181
659.00,0.0185
646.00,0.0190
633.00,0.0197
620.00,0.0205
607.00,0.0206
594.00,0.0209
581.00,0.0214
568.00,0.0220
555.00,0.0229
542.00,0.0240
529.00,0.0249
516.00,0.0255
503.00,0.0262
490.00,0.0271
477.00,0.0279
464.00,0.0284
451.00,0.0281
438.00,0.0265
425.00,0.0253
412.00,0.0262
400.00,0.0249