File: FTIR/Mary/2024_07_27_HIFaFilms_Unstretched_1.csv
Created as New Dataset,Sample 284 By YargerLab Date Friday, July 26 2024
cm-1,A
4000.00,-0.0003
3987.00,-0.0003
3974.00,-0.0003
3961.00,-0.0003
3948.00,-0.0003
3935.00,-0.0003
3922.00,-0.0003
3909.00,-0.0003
3896.00,-0.0003
3883.00,-0.0003
3870.00,-0.0003
3857.00,-0.0002
3844.00,-0.0003
3831.00,-0.0004
3818.00,-0.0003
3805.00,-0.0002
3792.00,-0.0004
3779.00,-0.0003
3766.00,-0.0003
3753.00,-0.0002
3740.00,-0.0002
3727.00,-0.0003
3714.00,-0.0002
3701.00,-0.0002
3688.00,-0.0001
3675.00,0.0000
3662.00,0.0001
3649.00,0.0004
3636.00,0.0006
3623.00,0.0009
3610.00,0.0012
3597.00,0.0015
3584.00,0.0018
3571.00,0.0023
3558.00,0.0025
3545.00,0.0029
3532.00,0.0032
3519.00,0.0035
3506.00,0.0039
3493.00,0.0042
3480.00,0.0045
3467.00,0.0048
3454.00,0.0051
3441.00,0.0054
3428.00,0.0058
3415.00,0.0061
3402.00,0.0064
3389.00,0.0066
3376.00,0.0069
3363.00,0.0074
3350.00,0.0078
3337.00,0.0083
3324.00,0.0091
3311.00,0.0100
3298.00,0.0110
3285.00,0.0119
3272.00,0.0124
3259.00,0.0118
3246.00,0.0108
3233.00,0.0100
3220.00,0.0093
3207.00,0.0088
3194.00,0.0083
3181.00,0.0078
3168.00,0.0072
3155.00,0.0067
3142.00,0.0063
3129.00,0.0060
3116.00,0.0059
3103.00,0.0059
3090.00,0.0060
3077.00,0.0060
3064.00,0.0059
3051.00,0.0055
3038.00,0.0050
3025.00,0.0046
3012.00,0.0043
2999.00,0.0042
2986.00,0.0046
2973.00,0.0054
2960.00,0.0058
2947.00,0.0054
2934.00,0.0059
2921.00,0.0057
2908.00,0.0048
2895.00,0.0043
2882.00,0.0043
2869.00,0.0042
2856.00,0.0038
2843.00,0.0032
2830.00,0.0028
2817.00,0.0027
2804.00,0.0026
2791.00,0.0024
2778.00,0.0022
2765.00,0.0020
2752.00,0.0018
2739.00,0.0017
2726.00,0.0016
2713.00,0.0014
2700.00,0.0014
2687.00,0.0013
2674.00,0.0012
2661.00,0.0010
2648.00,0.0009
2635.00,0.0009
2622.00,0.0008
2609.00,0.0008
2596.00,0.0008
2583.00,0.0007
2570.00,0.0007
2557.00,0.0006
2544.00,0.0005
2531.00,0.0005
2518.00,0.0005
2505.00,0.0004
2492.00,0.0003
2479.00,0.0003
2466.00,0.0002
2453.00,0.0002
2440.00,0.0002
2427.00,0.0001
2414.00,0.0001
2401.00,0.0001
2388.00,0.0000
2375.00,0.0000
2362.00,-0.0000
2349.00,-0.0001
2336.00,-0.0001
2323.00,-0.0002
2310.00,-0.0001
2297.00,-0.0001
2284.00,-0.0001
2271.00,-0.0000
2258.00,-0.0000
2245.00,-0.0002
2232.00,-0.0000
2219.00,0.0000
2206.00,-0.0000
2193.00,0.0000
2180.00,0.0000
2167.00,0.0000
2154.00,0.0003
2141.00,-0.0000
2128.00,-0.0000
2115.00,-0.0001
2102.00,-0.0001
2089.00,-0.0000
2076.00,-0.0001
2063.00,-0.0001
2050.00,-0.0003
2037.00,0.0000
2024.00,-0.0001
2011.00,-0.0002
1998.00,-0.0001
1985.00,-0.0003
1972.00,-0.0001
1959.00,-0.0001
1946.00,-0.0002
1933.00,-0.0003
1920.00,-0.0004
1907.00,-0.0002
1894.00,-0.0003
1881.00,-0.0003
1868.00,-0.0003
1855.00,-0.0003
1842.00,-0.0003
1829.00,-0.0002
1816.00,-0.0003
1803.00,-0.0003
1790.00,-0.0002
1777.00,-0.0001
1764.00,-0.0000
1751.00,0.0003
1738.00,0.0010
1725.00,0.0012
1712.00,0.0021
1699.00,0.0066
1686.00,0.0098
1673.00,0.0131
1660.00,0.0167
1647.00,0.0195
1634.00,0.0210
1621.00,0.0249
1608.00,0.0223
1595.00,0.0162
1582.00,0.0141
1569.00,0.0152
1556.00,0.0180
1543.00,0.0212
1530.00,0.0228
1517.00,0.0230
1504.00,0.0192
1491.00,0.0141
1478.00,0.0110
1465.00,0.0118
1452.00,0.0127
1439.00,0.0121
1426.00,0.0105
1413.00,0.0117
1400.00,0.0129
1387.00,0.0130
1374.00,0.0117
1361.00,0.0099
1348.00,0.0106
1335.00,0.0099
1322.00,0.0096
1309.00,0.0094
1296.00,0.0091
1283.00,0.0094
1270.00,0.0095
1257.00,0.0107
1244.00,0.0121
1231.00,0.0124
1218.00,0.0112
1205.00,0.0089
1192.00,0.0077
1179.00,0.0075
1166.00,0.0084
1153.00,0.0084
1140.00,0.0079
1127.00,0.0085
1114.00,0.0092
1101.00,0.0097
1088.00,0.0111
1075.00,0.0128
1062.00,0.0128
1049.00,0.0118
1036.00,0.0103
1023.00,0.0089
1010.00,0.0070
997.00,0.0058
984.00,0.0055
971.00,0.0060
958.00,0.0054
945.00,0.0053
932.00,0.0053
919.00,0.0047
906.00,0.0044
893.00,0.0045
880.00,0.0045
867.00,0.0044
854.00,0.0050
841.00,0.0056
828.00,0.0066
815.00,0.0070
802.00,0.0078
789.00,0.0090
776.00,0.0102
763.00,0.0110
750.00,0.0117
737.00,0.0125
724.00,0.0142
711.00,0.0163
698.00,0.0184
685.00,0.0188
672.00,0.0191
659.00,0.0196
646.00,0.0203
633.00,0.0209
620.00,0.0217
607.00,0.0217
594.00,0.0221
581.00,0.0226
568.00,0.0234
555.00,0.0241
542.00,0.0251
529.00,0.0262
516.00,0.0266
503.00,0.0271
490.00,0.0281
477.00,0.0291
464.00,0.0290
451.00,0.0287
438.00,0.0275
425.00,0.0264
412.00,0.0272
400.00,0.0261