File: FTIR/Mary/2024_11_01_THCa_powder_Scan3.csv
Created as New Dataset,Sample 026 By YargerLab Date Friday, November 01 2024
cm-1,A
4000.00,0.0059
3987.00,0.0060
3974.00,0.0060
3961.00,0.0059
3948.00,0.0059
3935.00,0.0059
3922.00,0.0059
3909.00,0.0059
3896.00,0.0059
3883.00,0.0059
3870.00,0.0059
3857.00,0.0058
3844.00,0.0058
3831.00,0.0057
3818.00,0.0057
3805.00,0.0056
3792.00,0.0056
3779.00,0.0056
3766.00,0.0056
3753.00,0.0056
3740.00,0.0055
3727.00,0.0055
3714.00,0.0055
3701.00,0.0054
3688.00,0.0054
3675.00,0.0050
3662.00,0.0048
3649.00,0.0049
3636.00,0.0050
3623.00,0.0053
3610.00,0.0054
3597.00,0.0054
3584.00,0.0054
3571.00,0.0054
3558.00,0.0054
3545.00,0.0054
3532.00,0.0055
3519.00,0.0048
3506.00,0.0047
3493.00,0.0053
3480.00,0.0055
3467.00,0.0055
3454.00,0.0055
3441.00,0.0055
3428.00,0.0055
3415.00,0.0055
3402.00,0.0052
3389.00,0.0058
3376.00,0.0069
3363.00,0.0076
3350.00,0.0082
3337.00,0.0088
3324.00,0.0095
3311.00,0.0102
3298.00,0.0109
3285.00,0.0118
3272.00,0.0127
3259.00,0.0142
3246.00,0.0155
3233.00,0.0170
3220.00,0.0192
3207.00,0.0203
3194.00,0.0209
3181.00,0.0218
3168.00,0.0226
3155.00,0.0238
3142.00,0.0256
3129.00,0.0276
3116.00,0.0287
3103.00,0.0308
3090.00,0.0331
3077.00,0.0371
3064.00,0.0399
3051.00,0.0406
3038.00,0.0420
3025.00,0.0431
3012.00,0.0434
2999.00,0.0443
2986.00,0.0539
2973.00,0.0634
2960.00,0.0761
2947.00,0.0761
2934.00,0.0893
2921.00,0.0897
2908.00,0.0784
2895.00,0.0772
2882.00,0.0739
2869.00,0.0771
2856.00,0.0717
2843.00,0.0646
2830.00,0.0660
2817.00,0.0542
2804.00,0.0494
2791.00,0.0459
2778.00,0.0423
2765.00,0.0400
2752.00,0.0391
2739.00,0.0386
2726.00,0.0384
2713.00,0.0365
2700.00,0.0359
2687.00,0.0363
2674.00,0.0360
2661.00,0.0356
2648.00,0.0352
2635.00,0.0344
2622.00,0.0337
2609.00,0.0336
2596.00,0.0334
2583.00,0.0351
2570.00,0.0360
2557.00,0.0354
2544.00,0.0349
2531.00,0.0338
2518.00,0.0333
2505.00,0.0308
2492.00,0.0272
2479.00,0.0245
2466.00,0.0226
2453.00,0.0215
2440.00,0.0200
2427.00,0.0186
2414.00,0.0174
2401.00,0.0163
2388.00,0.0155
2375.00,0.0148
2362.00,0.0142
2349.00,0.0137
2336.00,0.0132
2323.00,0.0127
2310.00,0.0122
2297.00,0.0117
2284.00,0.0113
2271.00,0.0106
2258.00,0.0098
2245.00,0.0094
2232.00,0.0090
2219.00,0.0090
2206.00,0.0091
2193.00,0.0089
2180.00,0.0089
2167.00,0.0086
2154.00,0.0074
2141.00,0.0079
2128.00,0.0081
2115.00,0.0083
2102.00,0.0080
2089.00,0.0079
2076.00,0.0075
2063.00,0.0075
2050.00,0.0076
2037.00,0.0075
2024.00,0.0073
2011.00,0.0064
1998.00,0.0068
1985.00,0.0070
1972.00,0.0070
1959.00,0.0068
1946.00,0.0068
1933.00,0.0072
1920.00,0.0076
1907.00,0.0079
1894.00,0.0079
1881.00,0.0080
1868.00,0.0082
1855.00,0.0085
1842.00,0.0086
1829.00,0.0086
1816.00,0.0085
1803.00,0.0090
1790.00,0.0091
1777.00,0.0092
1764.00,0.0095
1751.00,0.0097
1738.00,0.0097
1725.00,0.0098
1712.00,0.0098
1699.00,0.0113
1686.00,0.0128
1673.00,0.0166
1660.00,0.0221
1647.00,0.0295
1634.00,0.0683
1621.00,0.1750
1608.00,0.2405
1595.00,0.1369
1582.00,0.0842
1569.00,0.1324
1556.00,0.0705
1543.00,0.0396
1530.00,0.0347
1517.00,0.0382
1504.00,0.0470
1491.00,0.0518
1478.00,0.0453
1465.00,0.0942
1452.00,0.1044
1439.00,0.1002
1426.00,0.0742
1413.00,0.0512
1400.00,0.0971
1387.00,0.0839
1374.00,0.1310
1361.00,0.1185
1348.00,0.0728
1335.00,0.0447
1322.00,0.0522
1309.00,0.0495
1296.00,0.0600
1283.00,0.0941
1270.00,0.1648
1257.00,0.2511
1244.00,0.2328
1231.00,0.1578
1218.00,0.0824
1205.00,0.0674
1192.00,0.1816
1179.00,0.1296
1166.00,0.0716
1153.00,0.0498
1140.00,0.0646
1127.00,0.1497
1114.00,0.1539
1101.00,0.0719
1088.00,0.0438
1075.00,0.0883
1062.00,0.0490
1049.00,0.0613
1036.00,0.0699
1023.00,0.0380
1010.00,0.0457
997.00,0.0379
984.00,0.0314
971.00,0.0388
958.00,0.0319
945.00,0.0536
932.00,0.0522
919.00,0.0693
906.00,0.1086
893.00,0.0983
880.00,0.0605
867.00,0.0604
854.00,0.1072
841.00,0.0862
828.00,0.0751
815.00,0.0597
802.00,0.0472
789.00,0.0672
776.00,0.0782
763.00,0.0707
750.00,0.0637
737.00,0.0733
724.00,0.0900
711.00,0.1342
698.00,0.0641
685.00,0.0460
672.00,0.0374
659.00,0.0498
646.00,0.0556
633.00,0.0473
620.00,0.0498
607.00,0.0408
594.00,0.0764
581.00,0.0338
568.00,0.0404
555.00,0.0331
542.00,0.0328
529.00,0.0335
516.00,0.0299
503.00,0.0760
490.00,0.0609
477.00,0.0404
464.00,0.0350
451.00,0.0310
438.00,0.0567
425.00,0.0787
412.00,0.0650
400.00,0.0426