File: FTIR/Mary/2025_11_14_Polystyrene_Post_Scan1.csv
Created as New Dataset,Sample 367 By YargerLab Date Friday, November 14 2025
cm-1,A
4000.00,-0.0005
3987.00,-0.0005
3974.00,-0.0006
3961.00,-0.0006
3948.00,-0.0006
3935.00,-0.0006
3922.00,-0.0007
3909.00,-0.0006
3896.00,-0.0006
3883.00,-0.0008
3870.00,-0.0007
3857.00,-0.0005
3844.00,-0.0008
3831.00,-0.0007
3818.00,-0.0008
3805.00,-0.0006
3792.00,-0.0008
3779.00,-0.0008
3766.00,-0.0007
3753.00,-0.0008
3740.00,-0.0009
3727.00,-0.0007
3714.00,-0.0007
3701.00,-0.0008
3688.00,-0.0008
3675.00,-0.0006
3662.00,-0.0005
3649.00,-0.0004
3636.00,-0.0002
3623.00,-0.0001
3610.00,0.0001
3597.00,0.0006
3584.00,0.0007
3571.00,0.0011
3558.00,0.0017
3545.00,0.0022
3532.00,0.0026
3519.00,0.0031
3506.00,0.0036
3493.00,0.0039
3480.00,0.0044
3467.00,0.0047
3454.00,0.0052
3441.00,0.0054
3428.00,0.0059
3415.00,0.0061
3402.00,0.0064
3389.00,0.0067
3376.00,0.0070
3363.00,0.0073
3350.00,0.0078
3337.00,0.0081
3324.00,0.0084
3311.00,0.0087
3298.00,0.0088
3285.00,0.0089
3272.00,0.0086
3259.00,0.0082
3246.00,0.0076
3233.00,0.0072
3220.00,0.0068
3207.00,0.0068
3194.00,0.0064
3181.00,0.0060
3168.00,0.0058
3155.00,0.0053
3142.00,0.0050
3129.00,0.0047
3116.00,0.0050
3103.00,0.0069
3090.00,0.0081
3077.00,0.0107
3064.00,0.0143
3051.00,0.0112
3038.00,0.0116
3025.00,0.0286
3012.00,0.0106
2999.00,0.0102
2986.00,0.0082
2973.00,0.0113
2960.00,0.0177
2947.00,0.0233
2934.00,0.0421
2921.00,0.0609
2908.00,0.0408
2895.00,0.0253
2882.00,0.0181
2869.00,0.0175
2856.00,0.0284
2843.00,0.0195
2830.00,0.0070
2817.00,0.0049
2804.00,0.0040
2791.00,0.0033
2778.00,0.0029
2765.00,0.0026
2752.00,0.0023
2739.00,0.0023
2726.00,0.0022
2713.00,0.0020
2700.00,0.0019
2687.00,0.0020
2674.00,0.0018
2661.00,0.0021
2648.00,0.0021
2635.00,0.0020
2622.00,0.0017
2609.00,0.0017
2596.00,0.0014
2583.00,0.0013
2570.00,0.0010
2557.00,0.0009
2544.00,0.0008
2531.00,0.0008
2518.00,0.0006
2505.00,0.0005
2492.00,0.0002
2479.00,0.0003
2466.00,0.0002
2453.00,0.0000
2440.00,-0.0001
2427.00,-0.0002
2414.00,-0.0004
2401.00,-0.0007
2388.00,-0.0007
2375.00,-0.0007
2362.00,-0.0006
2349.00,-0.0003
2336.00,-0.0001
2323.00,0.0006
2310.00,0.0003
2297.00,0.0001
2284.00,0.0002
2271.00,-0.0004
2258.00,-0.0003
2245.00,-0.0007
2232.00,-0.0008
2219.00,-0.0011
2206.00,-0.0008
2193.00,-0.0008
2180.00,-0.0008
2167.00,-0.0008
2154.00,-0.0033
2141.00,-0.0026
2128.00,-0.0023
2115.00,-0.0011
2102.00,-0.0011
2089.00,-0.0013
2076.00,-0.0010
2063.00,-0.0016
2050.00,-0.0005
2037.00,-0.0014
2024.00,-0.0013
2011.00,-0.0019
1998.00,-0.0013
1985.00,-0.0002
1972.00,-0.0010
1959.00,0.0003
1946.00,0.0018
1933.00,0.0007
1920.00,-0.0004
1907.00,-0.0006
1894.00,0.0004
1881.00,0.0014
1868.00,0.0020
1855.00,0.0004
1842.00,-0.0001
1829.00,0.0006
1816.00,0.0018
1803.00,0.0039
1790.00,0.0029
1777.00,0.0037
1764.00,0.0059
1751.00,0.0150
1738.00,0.0225
1725.00,0.0170
1712.00,0.0145
1699.00,0.0137
1686.00,0.0159
1673.00,0.0203
1660.00,0.0244
1647.00,0.0244
1634.00,0.0221
1621.00,0.0178
1608.00,0.0206
1595.00,0.0228
1582.00,0.0192
1569.00,0.0127
1556.00,0.0152
1543.00,0.0176
1530.00,0.0140
1517.00,0.0121
1504.00,0.0118
1491.00,0.0683
1478.00,0.0147
1465.00,0.0211
1452.00,0.0822
1439.00,0.0374
1426.00,0.0193
1413.00,0.0185
1400.00,0.0187
1387.00,0.0223
1374.00,0.0274
1361.00,0.0247
1348.00,0.0232
1335.00,0.0223
1322.00,0.0226
1309.00,0.0235
1296.00,0.0215
1283.00,0.0212
1270.00,0.0209
1257.00,0.0207
1244.00,0.0226
1231.00,0.0223
1218.00,0.0224
1205.00,0.0245
1192.00,0.0276
1179.00,0.0331
1166.00,0.0272
1153.00,0.0323
1140.00,0.0214
1127.00,0.0206
1114.00,0.0246
1101.00,0.0255
1088.00,0.0280
1075.00,0.0351
1062.00,0.0351
1049.00,0.0306
1036.00,0.0334
1023.00,0.0454
1010.00,0.0291
997.00,0.0235
984.00,0.0234
971.00,0.0221
958.00,0.0204
945.00,0.0188
932.00,0.0160
919.00,0.0161
906.00,0.0319
893.00,0.0160
880.00,0.0120
867.00,0.0117
854.00,0.0123
841.00,0.0189
828.00,0.0116
815.00,0.0114
802.00,0.0123
789.00,0.0181
776.00,0.0378
763.00,0.0922
750.00,0.1199
737.00,0.0571
724.00,0.0240
711.00,0.0360
698.00,0.3097
685.00,0.1256
672.00,0.0629
659.00,0.0429
646.00,0.0325
633.00,0.0342
620.00,0.0387
607.00,0.0331
594.00,0.0347
581.00,0.0399
568.00,0.0584
555.00,0.0779
542.00,0.1173
529.00,0.0902
516.00,0.0512
503.00,0.0371
490.00,0.0308
477.00,0.0280
464.00,0.0265
451.00,0.0254
438.00,0.0232
425.00,0.0235
412.00,0.0232
400.00,0.0189