File: FTIR/Mary/2025_07_07_Polystyrene_Std_scan1.csv
Created as New Dataset,Sample 767 By YargerLab Date Monday, July 07 2025
cm-1,A
4000.00,0.0019
3987.00,0.0018
3974.00,0.0018
3961.00,0.0017
3948.00,0.0017
3935.00,0.0017
3922.00,0.0017
3909.00,0.0017
3896.00,0.0016
3883.00,0.0016
3870.00,0.0016
3857.00,0.0016
3844.00,0.0017
3831.00,0.0016
3818.00,0.0016
3805.00,0.0017
3792.00,0.0018
3779.00,0.0018
3766.00,0.0017
3753.00,0.0016
3740.00,0.0015
3727.00,0.0016
3714.00,0.0016
3701.00,0.0017
3688.00,0.0015
3675.00,0.0015
3662.00,0.0018
3649.00,0.0016
3636.00,0.0018
3623.00,0.0017
3610.00,0.0016
3597.00,0.0017
3584.00,0.0018
3571.00,0.0018
3558.00,0.0019
3545.00,0.0020
3532.00,0.0021
3519.00,0.0022
3506.00,0.0022
3493.00,0.0024
3480.00,0.0024
3467.00,0.0025
3454.00,0.0025
3441.00,0.0025
3428.00,0.0025
3415.00,0.0024
3402.00,0.0025
3389.00,0.0025
3376.00,0.0025
3363.00,0.0025
3350.00,0.0025
3337.00,0.0025
3324.00,0.0025
3311.00,0.0024
3298.00,0.0024
3285.00,0.0024
3272.00,0.0024
3259.00,0.0024
3246.00,0.0024
3233.00,0.0023
3220.00,0.0023
3207.00,0.0024
3194.00,0.0023
3181.00,0.0023
3168.00,0.0024
3155.00,0.0023
3142.00,0.0023
3129.00,0.0023
3116.00,0.0029
3103.00,0.0051
3090.00,0.0067
3077.00,0.0095
3064.00,0.0136
3051.00,0.0101
3038.00,0.0110
3025.00,0.0302
3012.00,0.0086
2999.00,0.0083
2986.00,0.0047
2973.00,0.0052
2960.00,0.0073
2947.00,0.0130
2934.00,0.0262
2921.00,0.0363
2908.00,0.0273
2895.00,0.0162
2882.00,0.0114
2869.00,0.0092
2856.00,0.0139
2843.00,0.0130
2830.00,0.0050
2817.00,0.0039
2804.00,0.0036
2791.00,0.0033
2778.00,0.0032
2765.00,0.0030
2752.00,0.0028
2739.00,0.0028
2726.00,0.0029
2713.00,0.0028
2700.00,0.0029
2687.00,0.0028
2674.00,0.0028
2661.00,0.0032
2648.00,0.0034
2635.00,0.0034
2622.00,0.0031
2609.00,0.0031
2596.00,0.0029
2583.00,0.0029
2570.00,0.0026
2557.00,0.0025
2544.00,0.0025
2531.00,0.0023
2518.00,0.0024
2505.00,0.0023
2492.00,0.0023
2479.00,0.0022
2466.00,0.0022
2453.00,0.0023
2440.00,0.0021
2427.00,0.0020
2414.00,0.0019
2401.00,0.0017
2388.00,0.0017
2375.00,0.0018
2362.00,0.0020
2349.00,0.0024
2336.00,0.0028
2323.00,0.0036
2310.00,0.0030
2297.00,0.0028
2284.00,0.0031
2271.00,0.0026
2258.00,0.0024
2245.00,0.0021
2232.00,0.0019
2219.00,0.0019
2206.00,0.0022
2193.00,0.0022
2180.00,0.0015
2167.00,0.0026
2154.00,-0.0010
2141.00,-0.0002
2128.00,0.0001
2115.00,0.0016
2102.00,0.0014
2089.00,0.0016
2076.00,0.0017
2063.00,0.0015
2050.00,0.0022
2037.00,0.0017
2024.00,0.0004
2011.00,0.0012
1998.00,0.0009
1985.00,0.0024
1972.00,0.0010
1959.00,0.0023
1946.00,0.0045
1933.00,0.0030
1920.00,0.0016
1907.00,0.0017
1894.00,0.0025
1881.00,0.0039
1868.00,0.0045
1855.00,0.0025
1842.00,0.0018
1829.00,0.0024
1816.00,0.0035
1803.00,0.0055
1790.00,0.0037
1777.00,0.0035
1764.00,0.0040
1751.00,0.0062
1738.00,0.0072
1725.00,0.0059
1712.00,0.0049
1699.00,0.0045
1686.00,0.0046
1673.00,0.0050
1660.00,0.0049
1647.00,0.0041
1634.00,0.0040
1621.00,0.0046
1608.00,0.0126
1595.00,0.0160
1582.00,0.0127
1569.00,0.0043
1556.00,0.0041
1543.00,0.0055
1530.00,0.0044
1517.00,0.0040
1504.00,0.0072
1491.00,0.0690
1478.00,0.0092
1465.00,0.0093
1452.00,0.0777
1439.00,0.0280
1426.00,0.0090
1413.00,0.0070
1400.00,0.0070
1387.00,0.0113
1374.00,0.0171
1361.00,0.0159
1348.00,0.0144
1335.00,0.0131
1322.00,0.0139
1309.00,0.0142
1296.00,0.0116
1283.00,0.0108
1270.00,0.0089
1257.00,0.0083
1244.00,0.0087
1231.00,0.0084
1218.00,0.0087
1205.00,0.0108
1192.00,0.0131
1179.00,0.0165
1166.00,0.0108
1153.00,0.0170
1140.00,0.0081
1127.00,0.0076
1114.00,0.0102
1101.00,0.0103
1088.00,0.0124
1075.00,0.0194
1062.00,0.0191
1049.00,0.0130
1036.00,0.0178
1023.00,0.0296
1010.00,0.0163
997.00,0.0132
984.00,0.0151
971.00,0.0149
958.00,0.0142
945.00,0.0139
932.00,0.0104
919.00,0.0121
906.00,0.0276
893.00,0.0107
880.00,0.0079
867.00,0.0072
854.00,0.0080
841.00,0.0144
828.00,0.0070
815.00,0.0067
802.00,0.0077
789.00,0.0141
776.00,0.0349
763.00,0.0922
750.00,0.1191
737.00,0.0494
724.00,0.0141
711.00,0.0311
698.00,0.3324
685.00,0.1122
672.00,0.0500
659.00,0.0296
646.00,0.0193
633.00,0.0214
620.00,0.0255
607.00,0.0198
594.00,0.0219
581.00,0.0280
568.00,0.0473
555.00,0.0680
542.00,0.1073
529.00,0.0752
516.00,0.0372
503.00,0.0248
490.00,0.0187
477.00,0.0162
464.00,0.0148
451.00,0.0140
438.00,0.0124
425.00,0.0106
412.00,0.0112
400.00,0.0089