File: FTIR/Mary/2025_11_16_Polystyrene_Scan2.csv
Created as New Dataset,Sample 370 By YargerLab Date Sunday, November 16 2025
cm-1,A
4000.00,0.0023
3987.00,0.0022
3974.00,0.0022
3961.00,0.0021
3948.00,0.0022
3935.00,0.0022
3922.00,0.0022
3909.00,0.0022
3896.00,0.0021
3883.00,0.0022
3870.00,0.0022
3857.00,0.0022
3844.00,0.0022
3831.00,0.0022
3818.00,0.0023
3805.00,0.0023
3792.00,0.0021
3779.00,0.0021
3766.00,0.0022
3753.00,0.0024
3740.00,0.0021
3727.00,0.0021
3714.00,0.0021
3701.00,0.0022
3688.00,0.0023
3675.00,0.0024
3662.00,0.0024
3649.00,0.0027
3636.00,0.0027
3623.00,0.0030
3610.00,0.0033
3597.00,0.0035
3584.00,0.0039
3571.00,0.0042
3558.00,0.0047
3545.00,0.0051
3532.00,0.0056
3519.00,0.0060
3506.00,0.0064
3493.00,0.0069
3480.00,0.0074
3467.00,0.0079
3454.00,0.0082
3441.00,0.0085
3428.00,0.0087
3415.00,0.0089
3402.00,0.0092
3389.00,0.0094
3376.00,0.0096
3363.00,0.0097
3350.00,0.0099
3337.00,0.0100
3324.00,0.0101
3311.00,0.0102
3298.00,0.0102
3285.00,0.0102
3272.00,0.0100
3259.00,0.0096
3246.00,0.0092
3233.00,0.0088
3220.00,0.0085
3207.00,0.0083
3194.00,0.0081
3181.00,0.0077
3168.00,0.0075
3155.00,0.0070
3142.00,0.0067
3129.00,0.0066
3116.00,0.0069
3103.00,0.0097
3090.00,0.0116
3077.00,0.0152
3064.00,0.0204
3051.00,0.0156
3038.00,0.0164
3025.00,0.0414
3012.00,0.0137
2999.00,0.0135
2986.00,0.0097
2973.00,0.0118
2960.00,0.0172
2947.00,0.0253
2934.00,0.0467
2921.00,0.0642
2908.00,0.0456
2895.00,0.0281
2882.00,0.0204
2869.00,0.0185
2856.00,0.0281
2843.00,0.0225
2830.00,0.0093
2817.00,0.0074
2804.00,0.0066
2791.00,0.0060
2778.00,0.0057
2765.00,0.0053
2752.00,0.0051
2739.00,0.0050
2726.00,0.0050
2713.00,0.0049
2700.00,0.0048
2687.00,0.0048
2674.00,0.0048
2661.00,0.0050
2648.00,0.0051
2635.00,0.0051
2622.00,0.0047
2609.00,0.0046
2596.00,0.0044
2583.00,0.0043
2570.00,0.0040
2557.00,0.0038
2544.00,0.0038
2531.00,0.0037
2518.00,0.0037
2505.00,0.0036
2492.00,0.0035
2479.00,0.0033
2466.00,0.0031
2453.00,0.0031
2440.00,0.0029
2427.00,0.0028
2414.00,0.0027
2401.00,0.0026
2388.00,0.0025
2375.00,0.0026
2362.00,0.0029
2349.00,0.0031
2336.00,0.0036
2323.00,0.0043
2310.00,0.0037
2297.00,0.0034
2284.00,0.0036
2271.00,0.0030
2258.00,0.0030
2245.00,0.0027
2232.00,0.0026
2219.00,0.0022
2206.00,0.0024
2193.00,0.0026
2180.00,0.0021
2167.00,0.0032
2154.00,-0.0004
2141.00,0.0005
2128.00,0.0007
2115.00,0.0021
2102.00,0.0020
2089.00,0.0018
2076.00,0.0021
2063.00,0.0018
2050.00,0.0022
2037.00,0.0021
2024.00,0.0011
2011.00,0.0012
1998.00,0.0015
1985.00,0.0027
1972.00,0.0016
1959.00,0.0036
1946.00,0.0061
1933.00,0.0041
1920.00,0.0024
1907.00,0.0024
1894.00,0.0036
1881.00,0.0052
1868.00,0.0060
1855.00,0.0035
1842.00,0.0026
1829.00,0.0033
1816.00,0.0049
1803.00,0.0073
1790.00,0.0054
1777.00,0.0054
1764.00,0.0070
1751.00,0.0161
1738.00,0.0228
1725.00,0.0167
1712.00,0.0130
1699.00,0.0121
1686.00,0.0129
1673.00,0.0154
1660.00,0.0167
1647.00,0.0155
1634.00,0.0139
1621.00,0.0128
1608.00,0.0212
1595.00,0.0259
1582.00,0.0223
1569.00,0.0126
1556.00,0.0134
1543.00,0.0149
1530.00,0.0119
1517.00,0.0106
1504.00,0.0130
1491.00,0.0888
1478.00,0.0156
1465.00,0.0192
1452.00,0.1029
1439.00,0.0412
1426.00,0.0177
1413.00,0.0163
1400.00,0.0160
1387.00,0.0210
1374.00,0.0278
1361.00,0.0256
1348.00,0.0235
1335.00,0.0218
1322.00,0.0229
1309.00,0.0233
1296.00,0.0205
1283.00,0.0196
1270.00,0.0180
1257.00,0.0180
1244.00,0.0185
1231.00,0.0178
1218.00,0.0174
1205.00,0.0198
1192.00,0.0228
1179.00,0.0289
1166.00,0.0225
1153.00,0.0291
1140.00,0.0177
1127.00,0.0169
1114.00,0.0205
1101.00,0.0213
1088.00,0.0232
1075.00,0.0314
1062.00,0.0315
1049.00,0.0238
1036.00,0.0285
1023.00,0.0429
1010.00,0.0248
997.00,0.0200
984.00,0.0212
971.00,0.0203
958.00,0.0194
945.00,0.0187
932.00,0.0148
919.00,0.0161
906.00,0.0348
893.00,0.0146
880.00,0.0114
867.00,0.0106
854.00,0.0112
841.00,0.0188
828.00,0.0108
815.00,0.0108
802.00,0.0119
789.00,0.0192
776.00,0.0428
763.00,0.1101
750.00,0.1434
737.00,0.0613
724.00,0.0203
711.00,0.0383
698.00,0.3894
685.00,0.1344
672.00,0.0629
659.00,0.0396
646.00,0.0279
633.00,0.0301
620.00,0.0350
607.00,0.0286
594.00,0.0305
581.00,0.0374
568.00,0.0588
555.00,0.0826
542.00,0.1283
529.00,0.0918
516.00,0.0476
503.00,0.0335
490.00,0.0269
477.00,0.0239
464.00,0.0219
451.00,0.0204
438.00,0.0195
425.00,0.0189
412.00,0.0172
400.00,0.0168