File: FTIR/Mary/2025_06_27_Polystyrene_Std_MEL_scan1.csv
Created as New Dataset,Sample 742 By YargerLab Date Friday, June 27 2025
cm-1,A
4000.00,0.0013
3987.00,0.0012
3974.00,0.0012
3961.00,0.0012
3948.00,0.0013
3935.00,0.0013
3922.00,0.0013
3909.00,0.0012
3896.00,0.0012
3883.00,0.0013
3870.00,0.0013
3857.00,0.0011
3844.00,0.0013
3831.00,0.0013
3818.00,0.0013
3805.00,0.0012
3792.00,0.0012
3779.00,0.0012
3766.00,0.0012
3753.00,0.0013
3740.00,0.0013
3727.00,0.0013
3714.00,0.0011
3701.00,0.0012
3688.00,0.0012
3675.00,0.0011
3662.00,0.0010
3649.00,0.0010
3636.00,0.0010
3623.00,0.0013
3610.00,0.0013
3597.00,0.0013
3584.00,0.0013
3571.00,0.0012
3558.00,0.0012
3545.00,0.0014
3532.00,0.0013
3519.00,0.0014
3506.00,0.0015
3493.00,0.0015
3480.00,0.0015
3467.00,0.0016
3454.00,0.0015
3441.00,0.0016
3428.00,0.0016
3415.00,0.0016
3402.00,0.0016
3389.00,0.0016
3376.00,0.0017
3363.00,0.0016
3350.00,0.0017
3337.00,0.0016
3324.00,0.0016
3311.00,0.0016
3298.00,0.0016
3285.00,0.0016
3272.00,0.0016
3259.00,0.0016
3246.00,0.0016
3233.00,0.0015
3220.00,0.0015
3207.00,0.0015
3194.00,0.0015
3181.00,0.0015
3168.00,0.0015
3155.00,0.0016
3142.00,0.0015
3129.00,0.0016
3116.00,0.0019
3103.00,0.0036
3090.00,0.0047
3077.00,0.0069
3064.00,0.0098
3051.00,0.0073
3038.00,0.0078
3025.00,0.0219
3012.00,0.0061
2999.00,0.0050
2986.00,0.0017
2973.00,0.0018
2960.00,0.0042
2947.00,0.0087
2934.00,0.0188
2921.00,0.0268
2908.00,0.0198
2895.00,0.0114
2882.00,0.0077
2869.00,0.0064
2856.00,0.0102
2843.00,0.0095
2830.00,0.0034
2817.00,0.0025
2804.00,0.0024
2791.00,0.0021
2778.00,0.0020
2765.00,0.0019
2752.00,0.0018
2739.00,0.0018
2726.00,0.0019
2713.00,0.0018
2700.00,0.0018
2687.00,0.0018
2674.00,0.0018
2661.00,0.0021
2648.00,0.0021
2635.00,0.0023
2622.00,0.0020
2609.00,0.0020
2596.00,0.0019
2583.00,0.0018
2570.00,0.0018
2557.00,0.0017
2544.00,0.0016
2531.00,0.0016
2518.00,0.0015
2505.00,0.0015
2492.00,0.0015
2479.00,0.0014
2466.00,0.0014
2453.00,0.0015
2440.00,0.0014
2427.00,0.0012
2414.00,0.0011
2401.00,0.0011
2388.00,0.0011
2375.00,0.0011
2362.00,0.0013
2349.00,0.0014
2336.00,0.0017
2323.00,0.0025
2310.00,0.0020
2297.00,0.0020
2284.00,0.0022
2271.00,0.0017
2258.00,0.0017
2245.00,0.0016
2232.00,0.0017
2219.00,0.0016
2206.00,0.0015
2193.00,0.0014
2180.00,0.0010
2167.00,0.0022
2154.00,-0.0007
2141.00,-0.0002
2128.00,0.0002
2115.00,0.0011
2102.00,0.0010
2089.00,0.0009
2076.00,0.0011
2063.00,0.0011
2050.00,0.0014
2037.00,0.0013
2024.00,0.0005
2011.00,0.0008
1998.00,0.0008
1985.00,0.0017
1972.00,0.0006
1959.00,0.0017
1946.00,0.0033
1933.00,0.0020
1920.00,0.0012
1907.00,0.0010
1894.00,0.0018
1881.00,0.0028
1868.00,0.0033
1855.00,0.0017
1842.00,0.0012
1829.00,0.0015
1816.00,0.0024
1803.00,0.0037
1790.00,0.0024
1777.00,0.0020
1764.00,0.0022
1751.00,0.0038
1738.00,0.0042
1725.00,0.0034
1712.00,0.0030
1699.00,0.0028
1686.00,0.0028
1673.00,0.0031
1660.00,0.0031
1647.00,0.0026
1634.00,0.0026
1621.00,0.0029
1608.00,0.0087
1595.00,0.0114
1582.00,0.0089
1569.00,0.0027
1556.00,0.0027
1543.00,0.0037
1530.00,0.0030
1517.00,0.0029
1504.00,0.0051
1491.00,0.0507
1478.00,0.0064
1465.00,0.0066
1452.00,0.0564
1439.00,0.0204
1426.00,0.0062
1413.00,0.0044
1400.00,0.0041
1387.00,0.0070
1374.00,0.0115
1361.00,0.0111
1348.00,0.0102
1335.00,0.0089
1322.00,0.0095
1309.00,0.0098
1296.00,0.0079
1283.00,0.0072
1270.00,0.0057
1257.00,0.0049
1244.00,0.0054
1231.00,0.0054
1218.00,0.0056
1205.00,0.0073
1192.00,0.0089
1179.00,0.0112
1166.00,0.0065
1153.00,0.0113
1140.00,0.0047
1127.00,0.0045
1114.00,0.0066
1101.00,0.0067
1088.00,0.0082
1075.00,0.0136
1062.00,0.0136
1049.00,0.0092
1036.00,0.0130
1023.00,0.0221
1010.00,0.0119
997.00,0.0094
984.00,0.0108
971.00,0.0102
958.00,0.0095
945.00,0.0094
932.00,0.0070
919.00,0.0085
906.00,0.0207
893.00,0.0075
880.00,0.0055
867.00,0.0048
854.00,0.0054
841.00,0.0103
828.00,0.0047
815.00,0.0046
802.00,0.0053
789.00,0.0102
776.00,0.0258
763.00,0.0679
750.00,0.0885
737.00,0.0370
724.00,0.0103
711.00,0.0232
698.00,0.2333
685.00,0.0848
672.00,0.0371
659.00,0.0217
646.00,0.0133
633.00,0.0150
620.00,0.0183
607.00,0.0139
594.00,0.0154
581.00,0.0203
568.00,0.0349
555.00,0.0507
542.00,0.0805
529.00,0.0568
516.00,0.0281
503.00,0.0182
490.00,0.0138
477.00,0.0114
464.00,0.0105
451.00,0.0099
438.00,0.0086
425.00,0.0070
412.00,0.0079
400.00,0.0069