File: FTIR/Mary/2025_07_07_Polystyrene_Std_scan2.csv
Created as New Dataset,Sample 768 By YargerLab Date Monday, July 07 2025
cm-1,A
4000.00,0.0020
3987.00,0.0021
3974.00,0.0020
3961.00,0.0020
3948.00,0.0020
3935.00,0.0020
3922.00,0.0021
3909.00,0.0020
3896.00,0.0020
3883.00,0.0019
3870.00,0.0020
3857.00,0.0021
3844.00,0.0020
3831.00,0.0020
3818.00,0.0021
3805.00,0.0021
3792.00,0.0020
3779.00,0.0020
3766.00,0.0020
3753.00,0.0021
3740.00,0.0020
3727.00,0.0019
3714.00,0.0020
3701.00,0.0019
3688.00,0.0019
3675.00,0.0020
3662.00,0.0021
3649.00,0.0021
3636.00,0.0021
3623.00,0.0022
3610.00,0.0023
3597.00,0.0023
3584.00,0.0025
3571.00,0.0026
3558.00,0.0028
3545.00,0.0029
3532.00,0.0031
3519.00,0.0032
3506.00,0.0034
3493.00,0.0037
3480.00,0.0038
3467.00,0.0040
3454.00,0.0041
3441.00,0.0043
3428.00,0.0045
3415.00,0.0046
3402.00,0.0048
3389.00,0.0049
3376.00,0.0050
3363.00,0.0052
3350.00,0.0054
3337.00,0.0055
3324.00,0.0055
3311.00,0.0053
3298.00,0.0053
3285.00,0.0053
3272.00,0.0052
3259.00,0.0050
3246.00,0.0047
3233.00,0.0044
3220.00,0.0042
3207.00,0.0042
3194.00,0.0040
3181.00,0.0038
3168.00,0.0038
3155.00,0.0036
3142.00,0.0034
3129.00,0.0034
3116.00,0.0038
3103.00,0.0059
3090.00,0.0075
3077.00,0.0101
3064.00,0.0141
3051.00,0.0105
3038.00,0.0114
3025.00,0.0299
3012.00,0.0091
2999.00,0.0086
2986.00,0.0051
2973.00,0.0057
2960.00,0.0078
2947.00,0.0134
2934.00,0.0261
2921.00,0.0359
2908.00,0.0278
2895.00,0.0171
2882.00,0.0123
2869.00,0.0101
2856.00,0.0144
2843.00,0.0135
2830.00,0.0056
2817.00,0.0045
2804.00,0.0041
2791.00,0.0038
2778.00,0.0037
2765.00,0.0034
2752.00,0.0033
2739.00,0.0033
2726.00,0.0033
2713.00,0.0032
2700.00,0.0032
2687.00,0.0032
2674.00,0.0032
2661.00,0.0035
2648.00,0.0037
2635.00,0.0037
2622.00,0.0034
2609.00,0.0035
2596.00,0.0032
2583.00,0.0031
2570.00,0.0028
2557.00,0.0027
2544.00,0.0027
2531.00,0.0026
2518.00,0.0026
2505.00,0.0026
2492.00,0.0025
2479.00,0.0024
2466.00,0.0024
2453.00,0.0024
2440.00,0.0022
2427.00,0.0021
2414.00,0.0021
2401.00,0.0019
2388.00,0.0019
2375.00,0.0020
2362.00,0.0022
2349.00,0.0024
2336.00,0.0029
2323.00,0.0039
2310.00,0.0033
2297.00,0.0030
2284.00,0.0033
2271.00,0.0028
2258.00,0.0026
2245.00,0.0025
2232.00,0.0022
2219.00,0.0020
2206.00,0.0022
2193.00,0.0022
2180.00,0.0018
2167.00,0.0030
2154.00,-0.0006
2141.00,0.0002
2128.00,0.0004
2115.00,0.0015
2102.00,0.0016
2089.00,0.0016
2076.00,0.0018
2063.00,0.0015
2050.00,0.0024
2037.00,0.0019
2024.00,0.0010
2011.00,0.0014
1998.00,0.0008
1985.00,0.0022
1972.00,0.0009
1959.00,0.0022
1946.00,0.0044
1933.00,0.0029
1920.00,0.0017
1907.00,0.0016
1894.00,0.0024
1881.00,0.0038
1868.00,0.0044
1855.00,0.0025
1842.00,0.0018
1829.00,0.0023
1816.00,0.0034
1803.00,0.0052
1790.00,0.0036
1777.00,0.0034
1764.00,0.0039
1751.00,0.0060
1738.00,0.0072
1725.00,0.0061
1712.00,0.0052
1699.00,0.0048
1686.00,0.0051
1673.00,0.0056
1660.00,0.0056
1647.00,0.0050
1634.00,0.0049
1621.00,0.0052
1608.00,0.0128
1595.00,0.0160
1582.00,0.0128
1569.00,0.0047
1556.00,0.0046
1543.00,0.0058
1530.00,0.0046
1517.00,0.0043
1504.00,0.0075
1491.00,0.0657
1478.00,0.0095
1465.00,0.0099
1452.00,0.0747
1439.00,0.0282
1426.00,0.0104
1413.00,0.0082
1400.00,0.0080
1387.00,0.0120
1374.00,0.0180
1361.00,0.0169
1348.00,0.0154
1335.00,0.0145
1322.00,0.0152
1309.00,0.0154
1296.00,0.0124
1283.00,0.0117
1270.00,0.0097
1257.00,0.0090
1244.00,0.0095
1231.00,0.0091
1218.00,0.0092
1205.00,0.0114
1192.00,0.0134
1179.00,0.0168
1166.00,0.0123
1153.00,0.0186
1140.00,0.0097
1127.00,0.0098
1114.00,0.0135
1101.00,0.0138
1088.00,0.0152
1075.00,0.0223
1062.00,0.0232
1049.00,0.0181
1036.00,0.0225
1023.00,0.0338
1010.00,0.0207
997.00,0.0177
984.00,0.0191
971.00,0.0173
958.00,0.0157
945.00,0.0148
932.00,0.0112
919.00,0.0127
906.00,0.0277
893.00,0.0114
880.00,0.0085
867.00,0.0075
854.00,0.0082
841.00,0.0145
828.00,0.0075
815.00,0.0073
802.00,0.0083
789.00,0.0144
776.00,0.0341
763.00,0.0877
750.00,0.1135
737.00,0.0487
724.00,0.0153
711.00,0.0320
698.00,0.3077
685.00,0.1096
672.00,0.0512
659.00,0.0320
646.00,0.0218
633.00,0.0240
620.00,0.0281
607.00,0.0227
594.00,0.0250
581.00,0.0305
568.00,0.0485
555.00,0.0688
542.00,0.1054
529.00,0.0761
516.00,0.0400
503.00,0.0274
490.00,0.0218
477.00,0.0193
464.00,0.0179
451.00,0.0158
438.00,0.0155
425.00,0.0143
412.00,0.0132
400.00,0.0123