File: FTIR/Mary/2025_12_02_Polystyrene_Standard_Scan2.csv
Created as New Dataset,Sample 385 By YargerLab Date Tuesday, December 02 2025
cm-1,A
4000.00,0.0008
3987.00,0.0008
3974.00,0.0007
3961.00,0.0008
3948.00,0.0008
3935.00,0.0007
3922.00,0.0007
3909.00,0.0006
3896.00,0.0006
3883.00,0.0006
3870.00,0.0006
3857.00,0.0006
3844.00,0.0007
3831.00,0.0006
3818.00,0.0006
3805.00,0.0006
3792.00,0.0007
3779.00,0.0007
3766.00,0.0007
3753.00,0.0007
3740.00,0.0006
3727.00,0.0006
3714.00,0.0006
3701.00,0.0006
3688.00,0.0006
3675.00,0.0007
3662.00,0.0007
3649.00,0.0007
3636.00,0.0007
3623.00,0.0007
3610.00,0.0006
3597.00,0.0008
3584.00,0.0009
3571.00,0.0010
3558.00,0.0012
3545.00,0.0012
3532.00,0.0013
3519.00,0.0014
3506.00,0.0016
3493.00,0.0017
3480.00,0.0018
3467.00,0.0019
3454.00,0.0019
3441.00,0.0020
3428.00,0.0020
3415.00,0.0021
3402.00,0.0021
3389.00,0.0021
3376.00,0.0022
3363.00,0.0022
3350.00,0.0023
3337.00,0.0023
3324.00,0.0024
3311.00,0.0024
3298.00,0.0023
3285.00,0.0023
3272.00,0.0023
3259.00,0.0022
3246.00,0.0022
3233.00,0.0021
3220.00,0.0021
3207.00,0.0021
3194.00,0.0020
3181.00,0.0020
3168.00,0.0020
3155.00,0.0019
3142.00,0.0019
3129.00,0.0019
3116.00,0.0021
3103.00,0.0031
3090.00,0.0037
3077.00,0.0051
3064.00,0.0067
3051.00,0.0053
3038.00,0.0055
3025.00,0.0140
3012.00,0.0047
2999.00,0.0045
2986.00,0.0029
2973.00,0.0035
2960.00,0.0047
2947.00,0.0072
2934.00,0.0133
2921.00,0.0184
2908.00,0.0140
2895.00,0.0086
2882.00,0.0062
2869.00,0.0052
2856.00,0.0076
2843.00,0.0069
2830.00,0.0027
2817.00,0.0021
2804.00,0.0019
2791.00,0.0017
2778.00,0.0016
2765.00,0.0015
2752.00,0.0015
2739.00,0.0015
2726.00,0.0015
2713.00,0.0014
2700.00,0.0014
2687.00,0.0014
2674.00,0.0014
2661.00,0.0016
2648.00,0.0017
2635.00,0.0017
2622.00,0.0016
2609.00,0.0015
2596.00,0.0014
2583.00,0.0012
2570.00,0.0012
2557.00,0.0011
2544.00,0.0010
2531.00,0.0010
2518.00,0.0010
2505.00,0.0010
2492.00,0.0008
2479.00,0.0008
2466.00,0.0008
2453.00,0.0008
2440.00,0.0008
2427.00,0.0005
2414.00,0.0006
2401.00,0.0005
2388.00,0.0004
2375.00,0.0004
2362.00,0.0006
2349.00,0.0007
2336.00,0.0009
2323.00,0.0016
2310.00,0.0012
2297.00,0.0011
2284.00,0.0013
2271.00,0.0009
2258.00,0.0009
2245.00,0.0007
2232.00,0.0006
2219.00,0.0004
2206.00,0.0007
2193.00,0.0008
2180.00,-0.0000
2167.00,0.0015
2154.00,-0.0015
2141.00,-0.0006
2128.00,-0.0008
2115.00,0.0004
2102.00,0.0002
2089.00,0.0002
2076.00,0.0006
2063.00,0.0003
2050.00,0.0011
2037.00,0.0006
2024.00,-0.0003
2011.00,-0.0021
1998.00,-0.0002
1985.00,0.0008
1972.00,0.0001
1959.00,0.0003
1946.00,0.0013
1933.00,0.0009
1920.00,0.0003
1907.00,0.0002
1894.00,0.0006
1881.00,0.0012
1868.00,0.0016
1855.00,0.0008
1842.00,0.0005
1829.00,0.0007
1816.00,0.0012
1803.00,0.0022
1790.00,0.0016
1777.00,0.0017
1764.00,0.0022
1751.00,0.0043
1738.00,0.0057
1725.00,0.0047
1712.00,0.0040
1699.00,0.0040
1686.00,0.0052
1673.00,0.0060
1660.00,0.0061
1647.00,0.0054
1634.00,0.0045
1621.00,0.0044
1608.00,0.0072
1595.00,0.0089
1582.00,0.0071
1569.00,0.0033
1556.00,0.0033
1543.00,0.0041
1530.00,0.0035
1517.00,0.0032
1504.00,0.0042
1491.00,0.0317
1478.00,0.0052
1465.00,0.0061
1452.00,0.0347
1439.00,0.0145
1426.00,0.0061
1413.00,0.0053
1400.00,0.0053
1387.00,0.0071
1374.00,0.0096
1361.00,0.0091
1348.00,0.0082
1335.00,0.0076
1322.00,0.0081
1309.00,0.0080
1296.00,0.0070
1283.00,0.0067
1270.00,0.0059
1257.00,0.0055
1244.00,0.0058
1231.00,0.0059
1218.00,0.0059
1205.00,0.0068
1192.00,0.0079
1179.00,0.0098
1166.00,0.0071
1153.00,0.0099
1140.00,0.0056
1127.00,0.0053
1114.00,0.0067
1101.00,0.0070
1088.00,0.0080
1075.00,0.0112
1062.00,0.0110
1049.00,0.0081
1036.00,0.0100
1023.00,0.0154
1010.00,0.0090
997.00,0.0073
984.00,0.0081
971.00,0.0079
958.00,0.0074
945.00,0.0072
932.00,0.0057
919.00,0.0063
906.00,0.0134
893.00,0.0056
880.00,0.0043
867.00,0.0038
854.00,0.0044
841.00,0.0072
828.00,0.0040
815.00,0.0037
802.00,0.0043
789.00,0.0071
776.00,0.0165
763.00,0.0412
750.00,0.0529
737.00,0.0234
724.00,0.0073
711.00,0.0149
698.00,0.1279
685.00,0.0525
672.00,0.0243
659.00,0.0150
646.00,0.0098
633.00,0.0107
620.00,0.0128
607.00,0.0101
594.00,0.0111
581.00,0.0138
568.00,0.0224
555.00,0.0318
542.00,0.0493
529.00,0.0364
516.00,0.0192
503.00,0.0132
490.00,0.0108
477.00,0.0096
464.00,0.0088
451.00,0.0091
438.00,0.0076
425.00,0.0069
412.00,0.0079
400.00,0.0062