File: FTIR/Mary/2025_11_14_Polystyrene_Post_Scan2.csv
Created as New Dataset,Sample 367 By YargerLab Date Friday, November 14 2025
cm-1,A
4000.00,0.0012
3987.00,0.0011
3974.00,0.0010
3961.00,0.0010
3948.00,0.0010
3935.00,0.0009
3922.00,0.0009
3909.00,0.0010
3896.00,0.0008
3883.00,0.0009
3870.00,0.0009
3857.00,0.0009
3844.00,0.0008
3831.00,0.0009
3818.00,0.0009
3805.00,0.0008
3792.00,0.0008
3779.00,0.0008
3766.00,0.0007
3753.00,0.0009
3740.00,0.0007
3727.00,0.0006
3714.00,0.0006
3701.00,0.0007
3688.00,0.0006
3675.00,0.0009
3662.00,0.0009
3649.00,0.0011
3636.00,0.0012
3623.00,0.0012
3610.00,0.0013
3597.00,0.0016
3584.00,0.0018
3571.00,0.0021
3558.00,0.0025
3545.00,0.0028
3532.00,0.0032
3519.00,0.0036
3506.00,0.0038
3493.00,0.0042
3480.00,0.0046
3467.00,0.0048
3454.00,0.0052
3441.00,0.0053
3428.00,0.0056
3415.00,0.0058
3402.00,0.0060
3389.00,0.0062
3376.00,0.0065
3363.00,0.0067
3350.00,0.0069
3337.00,0.0072
3324.00,0.0074
3311.00,0.0076
3298.00,0.0078
3285.00,0.0078
3272.00,0.0075
3259.00,0.0072
3246.00,0.0068
3233.00,0.0064
3220.00,0.0061
3207.00,0.0061
3194.00,0.0058
3181.00,0.0054
3168.00,0.0053
3155.00,0.0049
3142.00,0.0045
3129.00,0.0045
3116.00,0.0048
3103.00,0.0072
3090.00,0.0088
3077.00,0.0119
3064.00,0.0163
3051.00,0.0125
3038.00,0.0131
3025.00,0.0339
3012.00,0.0107
2999.00,0.0106
2986.00,0.0075
2973.00,0.0095
2960.00,0.0143
2947.00,0.0206
2934.00,0.0389
2921.00,0.0561
2908.00,0.0386
2895.00,0.0233
2882.00,0.0165
2869.00,0.0148
2856.00,0.0236
2843.00,0.0177
2830.00,0.0062
2817.00,0.0046
2804.00,0.0039
2791.00,0.0033
2778.00,0.0031
2765.00,0.0027
2752.00,0.0025
2739.00,0.0024
2726.00,0.0024
2713.00,0.0023
2700.00,0.0022
2687.00,0.0022
2674.00,0.0022
2661.00,0.0024
2648.00,0.0025
2635.00,0.0025
2622.00,0.0022
2609.00,0.0021
2596.00,0.0019
2583.00,0.0018
2570.00,0.0015
2557.00,0.0014
2544.00,0.0014
2531.00,0.0012
2518.00,0.0012
2505.00,0.0011
2492.00,0.0009
2479.00,0.0007
2466.00,0.0007
2453.00,0.0006
2440.00,0.0004
2427.00,0.0002
2414.00,0.0001
2401.00,-0.0001
2388.00,-0.0001
2375.00,0.0000
2362.00,0.0002
2349.00,0.0004
2336.00,0.0008
2323.00,0.0015
2310.00,0.0011
2297.00,0.0008
2284.00,0.0010
2271.00,0.0004
2258.00,0.0003
2245.00,0.0001
2232.00,-0.0001
2219.00,-0.0006
2206.00,-0.0003
2193.00,-0.0001
2180.00,-0.0006
2167.00,0.0003
2154.00,-0.0031
2141.00,-0.0022
2128.00,-0.0020
2115.00,-0.0006
2102.00,-0.0005
2089.00,-0.0008
2076.00,-0.0005
2063.00,-0.0010
2050.00,-0.0002
2037.00,-0.0004
2024.00,-0.0014
2011.00,-0.0007
1998.00,-0.0009
1985.00,0.0001
1972.00,-0.0008
1959.00,0.0007
1946.00,0.0031
1933.00,0.0013
1920.00,0.0001
1907.00,-0.0002
1894.00,0.0010
1881.00,0.0024
1868.00,0.0030
1855.00,0.0008
1842.00,0.0001
1829.00,0.0011
1816.00,0.0022
1803.00,0.0047
1790.00,0.0031
1777.00,0.0038
1764.00,0.0054
1751.00,0.0130
1738.00,0.0176
1725.00,0.0127
1712.00,0.0104
1699.00,0.0103
1686.00,0.0124
1673.00,0.0159
1660.00,0.0182
1647.00,0.0178
1634.00,0.0157
1621.00,0.0131
1608.00,0.0189
1595.00,0.0226
1582.00,0.0189
1569.00,0.0108
1556.00,0.0124
1543.00,0.0145
1530.00,0.0113
1517.00,0.0097
1504.00,0.0105
1491.00,0.0770
1478.00,0.0133
1465.00,0.0166
1452.00,0.0896
1439.00,0.0367
1426.00,0.0161
1413.00,0.0147
1400.00,0.0148
1387.00,0.0190
1374.00,0.0249
1361.00,0.0227
1348.00,0.0210
1335.00,0.0197
1322.00,0.0204
1309.00,0.0211
1296.00,0.0187
1283.00,0.0181
1270.00,0.0169
1257.00,0.0163
1244.00,0.0176
1231.00,0.0171
1218.00,0.0170
1205.00,0.0191
1192.00,0.0220
1179.00,0.0275
1166.00,0.0209
1153.00,0.0273
1140.00,0.0163
1127.00,0.0158
1114.00,0.0197
1101.00,0.0202
1088.00,0.0222
1075.00,0.0297
1062.00,0.0293
1049.00,0.0232
1036.00,0.0272
1023.00,0.0412
1010.00,0.0241
997.00,0.0190
984.00,0.0196
971.00,0.0184
958.00,0.0174
945.00,0.0165
932.00,0.0131
919.00,0.0140
906.00,0.0316
893.00,0.0132
880.00,0.0096
867.00,0.0090
854.00,0.0098
841.00,0.0169
828.00,0.0091
815.00,0.0090
802.00,0.0099
789.00,0.0166
776.00,0.0387
763.00,0.1000
750.00,0.1304
737.00,0.0576
724.00,0.0193
711.00,0.0338
698.00,0.3469
685.00,0.1307
672.00,0.0619
659.00,0.0399
646.00,0.0288
633.00,0.0305
620.00,0.0353
607.00,0.0289
594.00,0.0307
581.00,0.0371
568.00,0.0574
555.00,0.0792
542.00,0.1223
529.00,0.0906
516.00,0.0483
503.00,0.0342
490.00,0.0270
477.00,0.0245
464.00,0.0222
451.00,0.0217
438.00,0.0192
425.00,0.0185
412.00,0.0174
400.00,0.0147