File: FTIR/Mary/2025_06_11_Standard_Polystyrene_prescan_1.csv
Created as New Dataset,Sample 655 By YargerLab Date Tuesday, June 10 2025
cm-1,A
4000.00,0.0041
3987.00,0.0041
3974.00,0.0040
3961.00,0.0041
3948.00,0.0043
3935.00,0.0043
3922.00,0.0043
3909.00,0.0041
3896.00,0.0047
3883.00,0.0046
3870.00,0.0049
3857.00,0.0040
3844.00,0.0048
3831.00,0.0048
3818.00,0.0048
3805.00,0.0047
3792.00,0.0043
3779.00,0.0043
3766.00,0.0046
3753.00,0.0051
3740.00,0.0056
3727.00,0.0050
3714.00,0.0047
3701.00,0.0041
3688.00,0.0045
3675.00,0.0051
3662.00,0.0042
3649.00,0.0056
3636.00,0.0044
3623.00,0.0050
3610.00,0.0055
3597.00,0.0050
3584.00,0.0052
3571.00,0.0051
3558.00,0.0050
3545.00,0.0055
3532.00,0.0053
3519.00,0.0059
3506.00,0.0057
3493.00,0.0057
3480.00,0.0060
3467.00,0.0061
3454.00,0.0064
3441.00,0.0064
3428.00,0.0066
3415.00,0.0068
3402.00,0.0070
3389.00,0.0072
3376.00,0.0075
3363.00,0.0079
3350.00,0.0082
3337.00,0.0087
3324.00,0.0091
3311.00,0.0097
3298.00,0.0101
3285.00,0.0102
3272.00,0.0100
3259.00,0.0092
3246.00,0.0088
3233.00,0.0084
3220.00,0.0080
3207.00,0.0077
3194.00,0.0073
3181.00,0.0070
3168.00,0.0067
3155.00,0.0064
3142.00,0.0064
3129.00,0.0062
3116.00,0.0064
3103.00,0.0076
3090.00,0.0086
3077.00,0.0102
3064.00,0.0126
3051.00,0.0104
3038.00,0.0107
3025.00,0.0216
3012.00,0.0092
2999.00,0.0088
2986.00,0.0067
2973.00,0.0071
2960.00,0.0081
2947.00,0.0112
2934.00,0.0187
2921.00,0.0259
2908.00,0.0205
2895.00,0.0138
2882.00,0.0108
2869.00,0.0093
2856.00,0.0119
2843.00,0.0118
2830.00,0.0067
2817.00,0.0060
2804.00,0.0057
2791.00,0.0054
2778.00,0.0053
2765.00,0.0050
2752.00,0.0050
2739.00,0.0049
2726.00,0.0048
2713.00,0.0048
2700.00,0.0047
2687.00,0.0047
2674.00,0.0046
2661.00,0.0048
2648.00,0.0049
2635.00,0.0049
2622.00,0.0047
2609.00,0.0047
2596.00,0.0045
2583.00,0.0044
2570.00,0.0042
2557.00,0.0041
2544.00,0.0041
2531.00,0.0040
2518.00,0.0041
2505.00,0.0039
2492.00,0.0038
2479.00,0.0038
2466.00,0.0038
2453.00,0.0037
2440.00,0.0037
2427.00,0.0035
2414.00,0.0035
2401.00,0.0034
2388.00,0.0033
2375.00,0.0032
2362.00,0.0035
2349.00,0.0036
2336.00,0.0039
2323.00,0.0043
2310.00,0.0039
2297.00,0.0039
2284.00,0.0039
2271.00,0.0036
2258.00,0.0034
2245.00,0.0033
2232.00,0.0035
2219.00,0.0035
2206.00,0.0034
2193.00,0.0034
2180.00,0.0032
2167.00,0.0037
2154.00,0.0018
2141.00,0.0019
2128.00,0.0021
2115.00,0.0029
2102.00,0.0028
2089.00,0.0027
2076.00,0.0033
2063.00,0.0025
2050.00,0.0031
2037.00,0.0028
2024.00,0.0018
2011.00,-0.0007
1998.00,0.0021
1985.00,0.0034
1972.00,0.0020
1959.00,0.0031
1946.00,0.0045
1933.00,0.0034
1920.00,0.0028
1907.00,0.0026
1894.00,0.0032
1881.00,0.0040
1868.00,0.0044
1855.00,0.0032
1842.00,0.0029
1829.00,0.0029
1816.00,0.0037
1803.00,0.0048
1790.00,0.0040
1777.00,0.0035
1764.00,0.0032
1751.00,0.0042
1738.00,0.0035
1725.00,0.0035
1712.00,0.0042
1699.00,0.0076
1686.00,0.0102
1673.00,0.0131
1660.00,0.0155
1647.00,0.0168
1634.00,0.0166
1621.00,0.0142
1608.00,0.0155
1595.00,0.0159
1582.00,0.0142
1569.00,0.0103
1556.00,0.0124
1543.00,0.0155
1530.00,0.0153
1517.00,0.0160
1504.00,0.0154
1491.00,0.0499
1478.00,0.0124
1465.00,0.0121
1452.00,0.0536
1439.00,0.0240
1426.00,0.0120
1413.00,0.0109
1400.00,0.0108
1387.00,0.0124
1374.00,0.0158
1361.00,0.0147
1348.00,0.0136
1335.00,0.0128
1322.00,0.0128
1309.00,0.0129
1296.00,0.0111
1283.00,0.0106
1270.00,0.0097
1257.00,0.0093
1244.00,0.0097
1231.00,0.0097
1218.00,0.0098
1205.00,0.0105
1192.00,0.0113
1179.00,0.0134
1166.00,0.0095
1153.00,0.0137
1140.00,0.0076
1127.00,0.0073
1114.00,0.0091
1101.00,0.0091
1088.00,0.0106
1075.00,0.0155
1062.00,0.0157
1049.00,0.0118
1036.00,0.0144
1023.00,0.0225
1010.00,0.0136
997.00,0.0110
984.00,0.0118
971.00,0.0115
958.00,0.0110
945.00,0.0105
932.00,0.0084
919.00,0.0094
906.00,0.0201
893.00,0.0084
880.00,0.0067
867.00,0.0058
854.00,0.0065
841.00,0.0112
828.00,0.0065
815.00,0.0066
802.00,0.0073
789.00,0.0113
776.00,0.0250
763.00,0.0623
750.00,0.0816
737.00,0.0373
724.00,0.0129
711.00,0.0242
698.00,0.2125
685.00,0.0868
672.00,0.0415
659.00,0.0271
646.00,0.0194
633.00,0.0205
620.00,0.0233
607.00,0.0192
594.00,0.0204
581.00,0.0243
568.00,0.0373
555.00,0.0522
542.00,0.0805
529.00,0.0604
516.00,0.0324
503.00,0.0168
490.00,0.0178
477.00,0.0157
464.00,0.0141
451.00,0.0138
438.00,0.0120
425.00,0.0114
412.00,0.0120
400.00,0.0103