File: FTIR/Mary/2025_12_04_Polystyrene_Standard_Scan2.csv
Created as New Dataset,Sample 392 By YargerLab Date Thursday, December 04 2025
cm-1,A
4000.00,0.0003
3987.00,0.0003
3974.00,0.0003
3961.00,0.0003
3948.00,0.0003
3935.00,0.0003
3922.00,0.0003
3909.00,0.0003
3896.00,0.0002
3883.00,0.0003
3870.00,0.0003
3857.00,0.0003
3844.00,0.0002
3831.00,0.0003
3818.00,0.0004
3805.00,0.0004
3792.00,0.0003
3779.00,0.0003
3766.00,0.0002
3753.00,0.0005
3740.00,0.0004
3727.00,0.0002
3714.00,0.0003
3701.00,0.0003
3688.00,0.0003
3675.00,0.0003
3662.00,0.0003
3649.00,0.0004
3636.00,0.0002
3623.00,0.0003
3610.00,0.0004
3597.00,0.0005
3584.00,0.0005
3571.00,0.0005
3558.00,0.0007
3545.00,0.0008
3532.00,0.0009
3519.00,0.0010
3506.00,0.0011
3493.00,0.0012
3480.00,0.0012
3467.00,0.0013
3454.00,0.0014
3441.00,0.0015
3428.00,0.0015
3415.00,0.0015
3402.00,0.0016
3389.00,0.0016
3376.00,0.0016
3363.00,0.0017
3350.00,0.0017
3337.00,0.0018
3324.00,0.0017
3311.00,0.0018
3298.00,0.0018
3285.00,0.0018
3272.00,0.0018
3259.00,0.0017
3246.00,0.0017
3233.00,0.0016
3220.00,0.0015
3207.00,0.0015
3194.00,0.0014
3181.00,0.0014
3168.00,0.0014
3155.00,0.0014
3142.00,0.0013
3129.00,0.0013
3116.00,0.0015
3103.00,0.0024
3090.00,0.0030
3077.00,0.0043
3064.00,0.0058
3051.00,0.0045
3038.00,0.0047
3025.00,0.0125
3012.00,0.0039
2999.00,0.0038
2986.00,0.0023
2973.00,0.0029
2960.00,0.0044
2947.00,0.0069
2934.00,0.0130
2921.00,0.0180
2908.00,0.0130
2895.00,0.0078
2882.00,0.0055
2869.00,0.0047
2856.00,0.0073
2843.00,0.0062
2830.00,0.0021
2817.00,0.0016
2804.00,0.0014
2791.00,0.0012
2778.00,0.0012
2765.00,0.0010
2752.00,0.0010
2739.00,0.0010
2726.00,0.0009
2713.00,0.0010
2700.00,0.0010
2687.00,0.0009
2674.00,0.0009
2661.00,0.0011
2648.00,0.0013
2635.00,0.0012
2622.00,0.0012
2609.00,0.0011
2596.00,0.0010
2583.00,0.0010
2570.00,0.0009
2557.00,0.0007
2544.00,0.0008
2531.00,0.0007
2518.00,0.0006
2505.00,0.0006
2492.00,0.0005
2479.00,0.0005
2466.00,0.0004
2453.00,0.0005
2440.00,0.0005
2427.00,0.0004
2414.00,0.0003
2401.00,0.0002
2388.00,0.0001
2375.00,0.0001
2362.00,0.0003
2349.00,0.0002
2336.00,0.0006
2323.00,0.0013
2310.00,0.0007
2297.00,0.0007
2284.00,0.0011
2271.00,0.0008
2258.00,0.0005
2245.00,0.0005
2232.00,0.0005
2219.00,0.0004
2206.00,0.0003
2193.00,0.0006
2180.00,0.0004
2167.00,0.0010
2154.00,-0.0013
2141.00,-0.0008
2128.00,-0.0008
2115.00,0.0002
2102.00,0.0002
2089.00,-0.0000
2076.00,0.0004
2063.00,-0.0001
2050.00,0.0008
2037.00,0.0006
2024.00,-0.0002
2011.00,0.0000
1998.00,-0.0002
1985.00,0.0008
1972.00,-0.0003
1959.00,-0.0001
1946.00,0.0013
1933.00,0.0004
1920.00,0.0001
1907.00,0.0001
1894.00,0.0005
1881.00,0.0011
1868.00,0.0012
1855.00,0.0005
1842.00,0.0001
1829.00,0.0004
1816.00,0.0008
1803.00,0.0018
1790.00,0.0013
1777.00,0.0014
1764.00,0.0020
1751.00,0.0043
1738.00,0.0058
1725.00,0.0045
1712.00,0.0036
1699.00,0.0037
1686.00,0.0044
1673.00,0.0052
1660.00,0.0054
1647.00,0.0047
1634.00,0.0040
1621.00,0.0036
1608.00,0.0061
1595.00,0.0078
1582.00,0.0064
1569.00,0.0031
1556.00,0.0033
1543.00,0.0039
1530.00,0.0031
1517.00,0.0027
1504.00,0.0037
1491.00,0.0281
1478.00,0.0044
1465.00,0.0053
1452.00,0.0310
1439.00,0.0126
1426.00,0.0051
1413.00,0.0046
1400.00,0.0045
1387.00,0.0061
1374.00,0.0084
1361.00,0.0078
1348.00,0.0072
1335.00,0.0065
1322.00,0.0070
1309.00,0.0070
1296.00,0.0063
1283.00,0.0060
1270.00,0.0054
1257.00,0.0052
1244.00,0.0054
1231.00,0.0053
1218.00,0.0054
1205.00,0.0062
1192.00,0.0074
1179.00,0.0092
1166.00,0.0068
1153.00,0.0093
1140.00,0.0054
1127.00,0.0051
1114.00,0.0064
1101.00,0.0064
1088.00,0.0072
1075.00,0.0100
1062.00,0.0097
1049.00,0.0071
1036.00,0.0087
1023.00,0.0138
1010.00,0.0080
997.00,0.0066
984.00,0.0071
971.00,0.0070
958.00,0.0067
945.00,0.0064
932.00,0.0049
919.00,0.0055
906.00,0.0120
893.00,0.0049
880.00,0.0037
867.00,0.0033
854.00,0.0035
841.00,0.0062
828.00,0.0033
815.00,0.0031
802.00,0.0036
789.00,0.0061
776.00,0.0145
763.00,0.0363
750.00,0.0464
737.00,0.0204
724.00,0.0065
711.00,0.0130
698.00,0.1117
685.00,0.0459
672.00,0.0209
659.00,0.0129
646.00,0.0084
633.00,0.0092
620.00,0.0112
607.00,0.0086
594.00,0.0096
581.00,0.0120
568.00,0.0198
555.00,0.0281
542.00,0.0439
529.00,0.0323
516.00,0.0165
503.00,0.0115
490.00,0.0096
477.00,0.0079
464.00,0.0078
451.00,0.0075
438.00,0.0067
425.00,0.0064
412.00,0.0058
400.00,0.0058