File: FTIR/Mary/2025_10_03_Polystyrene_PostScan_Calibration_3.csv
Created as New Dataset,Sample 182 By YargerLab Date Friday, October 03 2025
cm-1,A
4000.00,0.0017
3987.00,0.0017
3974.00,0.0017
3961.00,0.0017
3948.00,0.0016
3935.00,0.0017
3922.00,0.0017
3909.00,0.0018
3896.00,0.0016
3883.00,0.0016
3870.00,0.0016
3857.00,0.0018
3844.00,0.0016
3831.00,0.0016
3818.00,0.0017
3805.00,0.0017
3792.00,0.0017
3779.00,0.0017
3766.00,0.0016
3753.00,0.0016
3740.00,0.0015
3727.00,0.0016
3714.00,0.0015
3701.00,0.0016
3688.00,0.0015
3675.00,0.0015
3662.00,0.0017
3649.00,0.0015
3636.00,0.0016
3623.00,0.0016
3610.00,0.0016
3597.00,0.0016
3584.00,0.0017
3571.00,0.0018
3558.00,0.0019
3545.00,0.0019
3532.00,0.0020
3519.00,0.0022
3506.00,0.0022
3493.00,0.0024
3480.00,0.0025
3467.00,0.0025
3454.00,0.0027
3441.00,0.0028
3428.00,0.0028
3415.00,0.0028
3402.00,0.0030
3389.00,0.0030
3376.00,0.0031
3363.00,0.0031
3350.00,0.0032
3337.00,0.0033
3324.00,0.0035
3311.00,0.0036
3298.00,0.0035
3285.00,0.0036
3272.00,0.0036
3259.00,0.0034
3246.00,0.0033
3233.00,0.0031
3220.00,0.0031
3207.00,0.0032
3194.00,0.0030
3181.00,0.0029
3168.00,0.0029
3155.00,0.0028
3142.00,0.0027
3129.00,0.0027
3116.00,0.0030
3103.00,0.0045
3090.00,0.0058
3077.00,0.0074
3064.00,0.0103
3051.00,0.0078
3038.00,0.0086
3025.00,0.0203
3012.00,0.0070
2999.00,0.0067
2986.00,0.0047
2973.00,0.0054
2960.00,0.0077
2947.00,0.0114
2934.00,0.0206
2921.00,0.0274
2908.00,0.0204
2895.00,0.0123
2882.00,0.0088
2869.00,0.0077
2856.00,0.0114
2843.00,0.0102
2830.00,0.0045
2817.00,0.0036
2804.00,0.0033
2791.00,0.0031
2778.00,0.0031
2765.00,0.0029
2752.00,0.0028
2739.00,0.0027
2726.00,0.0028
2713.00,0.0027
2700.00,0.0027
2687.00,0.0027
2674.00,0.0027
2661.00,0.0030
2648.00,0.0031
2635.00,0.0031
2622.00,0.0029
2609.00,0.0029
2596.00,0.0028
2583.00,0.0027
2570.00,0.0025
2557.00,0.0024
2544.00,0.0024
2531.00,0.0023
2518.00,0.0023
2505.00,0.0021
2492.00,0.0021
2479.00,0.0021
2466.00,0.0020
2453.00,0.0021
2440.00,0.0020
2427.00,0.0018
2414.00,0.0018
2401.00,0.0016
2388.00,0.0016
2375.00,0.0016
2362.00,0.0017
2349.00,0.0019
2336.00,0.0023
2323.00,0.0032
2310.00,0.0025
2297.00,0.0024
2284.00,0.0027
2271.00,0.0023
2258.00,0.0022
2245.00,0.0020
2232.00,0.0019
2219.00,0.0018
2206.00,0.0019
2193.00,0.0020
2180.00,0.0015
2167.00,0.0027
2154.00,-0.0005
2141.00,-0.0001
2128.00,0.0004
2115.00,0.0015
2102.00,0.0015
2089.00,0.0015
2076.00,0.0015
2063.00,0.0011
2050.00,0.0022
2037.00,0.0014
2024.00,0.0007
2011.00,0.0009
1998.00,0.0008
1985.00,0.0021
1972.00,0.0007
1959.00,0.0018
1946.00,0.0032
1933.00,0.0022
1920.00,0.0015
1907.00,0.0014
1894.00,0.0020
1881.00,0.0028
1868.00,0.0032
1855.00,0.0020
1842.00,0.0014
1829.00,0.0018
1816.00,0.0025
1803.00,0.0037
1790.00,0.0026
1777.00,0.0024
1764.00,0.0028
1751.00,0.0047
1738.00,0.0069
1725.00,0.0058
1712.00,0.0041
1699.00,0.0041
1686.00,0.0054
1673.00,0.0068
1660.00,0.0077
1647.00,0.0076
1634.00,0.0068
1621.00,0.0059
1608.00,0.0104
1595.00,0.0120
1582.00,0.0098
1569.00,0.0050
1556.00,0.0054
1543.00,0.0069
1530.00,0.0063
1517.00,0.0059
1504.00,0.0072
1491.00,0.0416
1478.00,0.0075
1465.00,0.0083
1452.00,0.0472
1439.00,0.0193
1426.00,0.0076
1413.00,0.0064
1400.00,0.0062
1387.00,0.0092
1374.00,0.0129
1361.00,0.0113
1348.00,0.0104
1335.00,0.0099
1322.00,0.0102
1309.00,0.0104
1296.00,0.0091
1283.00,0.0084
1270.00,0.0079
1257.00,0.0076
1244.00,0.0078
1231.00,0.0077
1218.00,0.0077
1205.00,0.0086
1192.00,0.0099
1179.00,0.0124
1166.00,0.0090
1153.00,0.0115
1140.00,0.0057
1127.00,0.0051
1114.00,0.0059
1101.00,0.0064
1088.00,0.0084
1075.00,0.0130
1062.00,0.0126
1049.00,0.0096
1036.00,0.0126
1023.00,0.0191
1010.00,0.0116
997.00,0.0096
984.00,0.0104
971.00,0.0102
958.00,0.0096
945.00,0.0090
932.00,0.0073
919.00,0.0083
906.00,0.0171
893.00,0.0077
880.00,0.0059
867.00,0.0053
854.00,0.0058
841.00,0.0095
828.00,0.0054
815.00,0.0054
802.00,0.0062
789.00,0.0099
776.00,0.0219
763.00,0.0535
750.00,0.0687
737.00,0.0319
724.00,0.0107
711.00,0.0207
698.00,0.1682
685.00,0.0679
672.00,0.0331
659.00,0.0215
646.00,0.0153
633.00,0.0162
620.00,0.0188
607.00,0.0157
594.00,0.0167
581.00,0.0201
568.00,0.0310
555.00,0.0426
542.00,0.0654
529.00,0.0488
516.00,0.0262
503.00,0.0192
490.00,0.0155
477.00,0.0142
464.00,0.0131
451.00,0.0118
438.00,0.0119
425.00,0.0115
412.00,0.0101
400.00,0.0105