File: FTIR/Mary/2025_10_03_Polystyrene_PostScan_Calibration_2.csv
Created as New Dataset,Sample 181 By YargerLab Date Friday, October 03 2025
cm-1,A
4000.00,0.0014
3987.00,0.0014
3974.00,0.0014
3961.00,0.0013
3948.00,0.0013
3935.00,0.0013
3922.00,0.0014
3909.00,0.0014
3896.00,0.0013
3883.00,0.0013
3870.00,0.0013
3857.00,0.0014
3844.00,0.0013
3831.00,0.0013
3818.00,0.0014
3805.00,0.0014
3792.00,0.0014
3779.00,0.0014
3766.00,0.0013
3753.00,0.0013
3740.00,0.0012
3727.00,0.0012
3714.00,0.0012
3701.00,0.0012
3688.00,0.0012
3675.00,0.0012
3662.00,0.0013
3649.00,0.0013
3636.00,0.0013
3623.00,0.0013
3610.00,0.0012
3597.00,0.0013
3584.00,0.0013
3571.00,0.0015
3558.00,0.0015
3545.00,0.0016
3532.00,0.0017
3519.00,0.0019
3506.00,0.0019
3493.00,0.0021
3480.00,0.0022
3467.00,0.0023
3454.00,0.0023
3441.00,0.0025
3428.00,0.0025
3415.00,0.0025
3402.00,0.0027
3389.00,0.0026
3376.00,0.0028
3363.00,0.0028
3350.00,0.0029
3337.00,0.0030
3324.00,0.0031
3311.00,0.0032
3298.00,0.0033
3285.00,0.0033
3272.00,0.0032
3259.00,0.0031
3246.00,0.0030
3233.00,0.0028
3220.00,0.0028
3207.00,0.0029
3194.00,0.0027
3181.00,0.0026
3168.00,0.0026
3155.00,0.0025
3142.00,0.0023
3129.00,0.0024
3116.00,0.0027
3103.00,0.0041
3090.00,0.0055
3077.00,0.0070
3064.00,0.0098
3051.00,0.0074
3038.00,0.0082
3025.00,0.0196
3012.00,0.0067
2999.00,0.0064
2986.00,0.0045
2973.00,0.0054
2960.00,0.0080
2947.00,0.0117
2934.00,0.0215
2921.00,0.0284
2908.00,0.0207
2895.00,0.0126
2882.00,0.0088
2869.00,0.0079
2856.00,0.0122
2843.00,0.0102
2830.00,0.0043
2817.00,0.0034
2804.00,0.0031
2791.00,0.0029
2778.00,0.0028
2765.00,0.0026
2752.00,0.0025
2739.00,0.0024
2726.00,0.0025
2713.00,0.0025
2700.00,0.0024
2687.00,0.0024
2674.00,0.0025
2661.00,0.0028
2648.00,0.0029
2635.00,0.0029
2622.00,0.0027
2609.00,0.0026
2596.00,0.0025
2583.00,0.0024
2570.00,0.0023
2557.00,0.0021
2544.00,0.0022
2531.00,0.0020
2518.00,0.0021
2505.00,0.0019
2492.00,0.0020
2479.00,0.0019
2466.00,0.0018
2453.00,0.0018
2440.00,0.0018
2427.00,0.0015
2414.00,0.0015
2401.00,0.0014
2388.00,0.0013
2375.00,0.0012
2362.00,0.0012
2349.00,0.0014
2336.00,0.0018
2323.00,0.0028
2310.00,0.0021
2297.00,0.0022
2284.00,0.0025
2271.00,0.0021
2258.00,0.0020
2245.00,0.0018
2232.00,0.0016
2219.00,0.0015
2206.00,0.0017
2193.00,0.0019
2180.00,0.0014
2167.00,0.0027
2154.00,-0.0009
2141.00,-0.0002
2128.00,0.0001
2115.00,0.0013
2102.00,0.0013
2089.00,0.0014
2076.00,0.0012
2063.00,0.0010
2050.00,0.0017
2037.00,0.0013
2024.00,0.0005
2011.00,0.0011
1998.00,0.0006
1985.00,0.0018
1972.00,0.0003
1959.00,0.0015
1946.00,0.0031
1933.00,0.0019
1920.00,0.0010
1907.00,0.0012
1894.00,0.0018
1881.00,0.0027
1868.00,0.0030
1855.00,0.0016
1842.00,0.0013
1829.00,0.0016
1816.00,0.0023
1803.00,0.0035
1790.00,0.0024
1777.00,0.0022
1764.00,0.0026
1751.00,0.0051
1738.00,0.0073
1725.00,0.0057
1712.00,0.0041
1699.00,0.0040
1686.00,0.0050
1673.00,0.0062
1660.00,0.0071
1647.00,0.0071
1634.00,0.0063
1621.00,0.0057
1608.00,0.0101
1595.00,0.0116
1582.00,0.0097
1569.00,0.0049
1556.00,0.0052
1543.00,0.0068
1530.00,0.0060
1517.00,0.0056
1504.00,0.0069
1491.00,0.0405
1478.00,0.0074
1465.00,0.0084
1452.00,0.0463
1439.00,0.0190
1426.00,0.0076
1413.00,0.0064
1400.00,0.0062
1387.00,0.0091
1374.00,0.0128
1361.00,0.0113
1348.00,0.0101
1335.00,0.0097
1322.00,0.0100
1309.00,0.0102
1296.00,0.0089
1283.00,0.0082
1270.00,0.0078
1257.00,0.0076
1244.00,0.0077
1231.00,0.0076
1218.00,0.0076
1205.00,0.0086
1192.00,0.0099
1179.00,0.0123
1166.00,0.0091
1153.00,0.0116
1140.00,0.0059
1127.00,0.0053
1114.00,0.0061
1101.00,0.0066
1088.00,0.0083
1075.00,0.0129
1062.00,0.0125
1049.00,0.0095
1036.00,0.0123
1023.00,0.0185
1010.00,0.0113
997.00,0.0093
984.00,0.0101
971.00,0.0099
958.00,0.0094
945.00,0.0088
932.00,0.0071
919.00,0.0081
906.00,0.0165
893.00,0.0075
880.00,0.0058
867.00,0.0053
854.00,0.0056
841.00,0.0090
828.00,0.0053
815.00,0.0052
802.00,0.0059
789.00,0.0095
776.00,0.0211
763.00,0.0511
750.00,0.0654
737.00,0.0304
724.00,0.0103
711.00,0.0199
698.00,0.1560
685.00,0.0638
672.00,0.0312
659.00,0.0203
646.00,0.0146
633.00,0.0156
620.00,0.0178
607.00,0.0147
594.00,0.0159
581.00,0.0193
568.00,0.0294
555.00,0.0406
542.00,0.0615
529.00,0.0459
516.00,0.0253
503.00,0.0183
490.00,0.0149
477.00,0.0135
464.00,0.0130
451.00,0.0114
438.00,0.0109
425.00,0.0101
412.00,0.0105
400.00,0.0087