File: FTIR/Mary/2025_12_04_Polystyrene_Standard_Scan1.csv
Created as New Dataset,Sample 391 By YargerLab Date Tuesday, December 02 2025
cm-1,A
4000.00,0.0005
3987.00,0.0005
3974.00,0.0005
3961.00,0.0005
3948.00,0.0005
3935.00,0.0005
3922.00,0.0005
3909.00,0.0004
3896.00,0.0005
3883.00,0.0005
3870.00,0.0005
3857.00,0.0006
3844.00,0.0005
3831.00,0.0005
3818.00,0.0007
3805.00,0.0006
3792.00,0.0005
3779.00,0.0005
3766.00,0.0005
3753.00,0.0006
3740.00,0.0006
3727.00,0.0005
3714.00,0.0005
3701.00,0.0005
3688.00,0.0005
3675.00,0.0005
3662.00,0.0005
3649.00,0.0007
3636.00,0.0005
3623.00,0.0007
3610.00,0.0007
3597.00,0.0008
3584.00,0.0008
3571.00,0.0009
3558.00,0.0011
3545.00,0.0012
3532.00,0.0013
3519.00,0.0014
3506.00,0.0015
3493.00,0.0016
3480.00,0.0017
3467.00,0.0018
3454.00,0.0020
3441.00,0.0020
3428.00,0.0021
3415.00,0.0022
3402.00,0.0022
3389.00,0.0023
3376.00,0.0024
3363.00,0.0025
3350.00,0.0026
3337.00,0.0027
3324.00,0.0027
3311.00,0.0029
3298.00,0.0029
3285.00,0.0029
3272.00,0.0029
3259.00,0.0027
3246.00,0.0026
3233.00,0.0025
3220.00,0.0024
3207.00,0.0024
3194.00,0.0023
3181.00,0.0022
3168.00,0.0022
3155.00,0.0021
3142.00,0.0020
3129.00,0.0020
3116.00,0.0021
3103.00,0.0030
3090.00,0.0034
3077.00,0.0047
3064.00,0.0059
3051.00,0.0049
3038.00,0.0050
3025.00,0.0119
3012.00,0.0042
2999.00,0.0041
2986.00,0.0029
2973.00,0.0036
2960.00,0.0052
2947.00,0.0074
2934.00,0.0132
2921.00,0.0183
2908.00,0.0134
2895.00,0.0084
2882.00,0.0061
2869.00,0.0054
2856.00,0.0081
2843.00,0.0067
2830.00,0.0027
2817.00,0.0021
2804.00,0.0019
2791.00,0.0017
2778.00,0.0016
2765.00,0.0015
2752.00,0.0014
2739.00,0.0014
2726.00,0.0014
2713.00,0.0014
2700.00,0.0014
2687.00,0.0014
2674.00,0.0014
2661.00,0.0016
2648.00,0.0017
2635.00,0.0017
2622.00,0.0016
2609.00,0.0015
2596.00,0.0014
2583.00,0.0013
2570.00,0.0012
2557.00,0.0011
2544.00,0.0010
2531.00,0.0010
2518.00,0.0010
2505.00,0.0010
2492.00,0.0009
2479.00,0.0008
2466.00,0.0009
2453.00,0.0009
2440.00,0.0008
2427.00,0.0006
2414.00,0.0007
2401.00,0.0005
2388.00,0.0004
2375.00,0.0005
2362.00,0.0006
2349.00,0.0007
2336.00,0.0009
2323.00,0.0016
2310.00,0.0011
2297.00,0.0010
2284.00,0.0014
2271.00,0.0010
2258.00,0.0010
2245.00,0.0008
2232.00,0.0008
2219.00,0.0009
2206.00,0.0007
2193.00,0.0009
2180.00,0.0003
2167.00,0.0014
2154.00,-0.0010
2141.00,-0.0003
2128.00,-0.0005
2115.00,0.0007
2102.00,0.0005
2089.00,0.0003
2076.00,0.0007
2063.00,0.0004
2050.00,0.0010
2037.00,0.0005
2024.00,-0.0002
2011.00,0.0003
1998.00,0.0001
1985.00,0.0008
1972.00,-0.0001
1959.00,0.0000
1946.00,0.0013
1933.00,0.0006
1920.00,0.0003
1907.00,0.0003
1894.00,0.0007
1881.00,0.0013
1868.00,0.0013
1855.00,0.0007
1842.00,0.0004
1829.00,0.0007
1816.00,0.0011
1803.00,0.0019
1790.00,0.0015
1777.00,0.0015
1764.00,0.0021
1751.00,0.0045
1738.00,0.0062
1725.00,0.0049
1712.00,0.0041
1699.00,0.0043
1686.00,0.0056
1673.00,0.0068
1660.00,0.0074
1647.00,0.0068
1634.00,0.0059
1621.00,0.0054
1608.00,0.0073
1595.00,0.0088
1582.00,0.0075
1569.00,0.0047
1556.00,0.0051
1543.00,0.0057
1530.00,0.0049
1517.00,0.0044
1504.00,0.0047
1491.00,0.0269
1478.00,0.0053
1465.00,0.0066
1452.00,0.0296
1439.00,0.0132
1426.00,0.0064
1413.00,0.0059
1400.00,0.0059
1387.00,0.0074
1374.00,0.0093
1361.00,0.0088
1348.00,0.0080
1335.00,0.0075
1322.00,0.0078
1309.00,0.0079
1296.00,0.0071
1283.00,0.0068
1270.00,0.0063
1257.00,0.0062
1244.00,0.0065
1231.00,0.0064
1218.00,0.0064
1205.00,0.0070
1192.00,0.0081
1179.00,0.0099
1166.00,0.0078
1153.00,0.0101
1140.00,0.0064
1127.00,0.0062
1114.00,0.0074
1101.00,0.0076
1088.00,0.0083
1075.00,0.0109
1062.00,0.0108
1049.00,0.0084
1036.00,0.0098
1023.00,0.0144
1010.00,0.0089
997.00,0.0074
984.00,0.0078
971.00,0.0075
958.00,0.0071
945.00,0.0067
932.00,0.0054
919.00,0.0059
906.00,0.0116
893.00,0.0054
880.00,0.0041
867.00,0.0038
854.00,0.0041
841.00,0.0065
828.00,0.0039
815.00,0.0038
802.00,0.0043
789.00,0.0064
776.00,0.0139
763.00,0.0336
750.00,0.0426
737.00,0.0196
724.00,0.0069
711.00,0.0126
698.00,0.1002
685.00,0.0421
672.00,0.0200
659.00,0.0129
646.00,0.0089
633.00,0.0096
620.00,0.0111
607.00,0.0090
594.00,0.0098
581.00,0.0119
568.00,0.0187
555.00,0.0260
542.00,0.0399
529.00,0.0296
516.00,0.0159
503.00,0.0111
490.00,0.0095
477.00,0.0088
464.00,0.0082
451.00,0.0073
438.00,0.0068
425.00,0.0057
412.00,0.0054
400.00,0.0034