File: FTIR/Mary/2025_11_16_Polystyrene_Scan3.csv
Created as New Dataset,Sample 371 By YargerLab Date Sunday, November 16 2025
cm-1,A
4000.00,0.0029
3987.00,0.0028
3974.00,0.0028
3961.00,0.0027
3948.00,0.0028
3935.00,0.0028
3922.00,0.0028
3909.00,0.0028
3896.00,0.0027
3883.00,0.0027
3870.00,0.0028
3857.00,0.0029
3844.00,0.0028
3831.00,0.0028
3818.00,0.0030
3805.00,0.0029
3792.00,0.0027
3779.00,0.0027
3766.00,0.0028
3753.00,0.0029
3740.00,0.0027
3727.00,0.0026
3714.00,0.0027
3701.00,0.0027
3688.00,0.0029
3675.00,0.0029
3662.00,0.0029
3649.00,0.0031
3636.00,0.0030
3623.00,0.0032
3610.00,0.0033
3597.00,0.0033
3584.00,0.0035
3571.00,0.0037
3558.00,0.0039
3545.00,0.0041
3532.00,0.0044
3519.00,0.0045
3506.00,0.0047
3493.00,0.0050
3480.00,0.0052
3467.00,0.0054
3454.00,0.0055
3441.00,0.0056
3428.00,0.0057
3415.00,0.0057
3402.00,0.0058
3389.00,0.0058
3376.00,0.0059
3363.00,0.0058
3350.00,0.0058
3337.00,0.0058
3324.00,0.0058
3311.00,0.0059
3298.00,0.0058
3285.00,0.0057
3272.00,0.0057
3259.00,0.0056
3246.00,0.0054
3233.00,0.0052
3220.00,0.0051
3207.00,0.0052
3194.00,0.0050
3181.00,0.0049
3168.00,0.0049
3155.00,0.0046
3142.00,0.0045
3129.00,0.0045
3116.00,0.0051
3103.00,0.0084
3090.00,0.0106
3077.00,0.0148
3064.00,0.0212
3051.00,0.0155
3038.00,0.0167
3025.00,0.0458
3012.00,0.0136
2999.00,0.0133
2986.00,0.0088
2973.00,0.0107
2960.00,0.0157
2947.00,0.0244
2934.00,0.0475
2921.00,0.0652
2908.00,0.0467
2895.00,0.0279
2882.00,0.0197
2869.00,0.0174
2856.00,0.0269
2843.00,0.0221
2830.00,0.0084
2817.00,0.0066
2804.00,0.0059
2791.00,0.0054
2778.00,0.0051
2765.00,0.0047
2752.00,0.0046
2739.00,0.0045
2726.00,0.0046
2713.00,0.0045
2700.00,0.0044
2687.00,0.0044
2674.00,0.0044
2661.00,0.0047
2648.00,0.0048
2635.00,0.0048
2622.00,0.0045
2609.00,0.0044
2596.00,0.0042
2583.00,0.0042
2570.00,0.0038
2557.00,0.0036
2544.00,0.0036
2531.00,0.0036
2518.00,0.0035
2505.00,0.0035
2492.00,0.0034
2479.00,0.0033
2466.00,0.0030
2453.00,0.0031
2440.00,0.0029
2427.00,0.0027
2414.00,0.0026
2401.00,0.0026
2388.00,0.0025
2375.00,0.0027
2362.00,0.0030
2349.00,0.0032
2336.00,0.0036
2323.00,0.0045
2310.00,0.0039
2297.00,0.0035
2284.00,0.0036
2271.00,0.0031
2258.00,0.0030
2245.00,0.0028
2232.00,0.0027
2219.00,0.0024
2206.00,0.0024
2193.00,0.0024
2180.00,0.0021
2167.00,0.0032
2154.00,-0.0001
2141.00,0.0004
2128.00,0.0006
2115.00,0.0020
2102.00,0.0021
2089.00,0.0019
2076.00,0.0021
2063.00,0.0018
2050.00,0.0022
2037.00,0.0019
2024.00,0.0010
2011.00,0.0011
1998.00,0.0016
1985.00,0.0029
1972.00,0.0019
1959.00,0.0038
1946.00,0.0068
1933.00,0.0043
1920.00,0.0026
1907.00,0.0024
1894.00,0.0038
1881.00,0.0057
1868.00,0.0064
1855.00,0.0037
1842.00,0.0026
1829.00,0.0034
1816.00,0.0052
1803.00,0.0078
1790.00,0.0054
1777.00,0.0052
1764.00,0.0065
1751.00,0.0142
1738.00,0.0216
1725.00,0.0159
1712.00,0.0105
1699.00,0.0093
1686.00,0.0095
1673.00,0.0106
1660.00,0.0101
1647.00,0.0084
1634.00,0.0072
1621.00,0.0075
1608.00,0.0182
1595.00,0.0236
1582.00,0.0196
1569.00,0.0081
1556.00,0.0080
1543.00,0.0097
1530.00,0.0074
1517.00,0.0067
1504.00,0.0110
1491.00,0.0967
1478.00,0.0140
1465.00,0.0167
1452.00,0.1124
1439.00,0.0413
1426.00,0.0148
1413.00,0.0122
1400.00,0.0117
1387.00,0.0179
1374.00,0.0260
1361.00,0.0236
1348.00,0.0214
1335.00,0.0194
1322.00,0.0207
1309.00,0.0211
1296.00,0.0181
1283.00,0.0171
1270.00,0.0153
1257.00,0.0150
1244.00,0.0152
1231.00,0.0143
1218.00,0.0140
1205.00,0.0164
1192.00,0.0198
1179.00,0.0265
1166.00,0.0193
1153.00,0.0261
1140.00,0.0136
1127.00,0.0129
1114.00,0.0164
1101.00,0.0161
1088.00,0.0180
1075.00,0.0268
1062.00,0.0269
1049.00,0.0181
1036.00,0.0236
1023.00,0.0398
1010.00,0.0209
997.00,0.0165
984.00,0.0187
971.00,0.0183
958.00,0.0175
945.00,0.0173
932.00,0.0129
919.00,0.0146
906.00,0.0352
893.00,0.0128
880.00,0.0098
867.00,0.0087
854.00,0.0094
841.00,0.0179
828.00,0.0087
815.00,0.0087
802.00,0.0098
789.00,0.0177
776.00,0.0437
763.00,0.1182
750.00,0.1548
737.00,0.0627
724.00,0.0176
711.00,0.0378
698.00,0.4385
685.00,0.1395
672.00,0.0620
659.00,0.0372
646.00,0.0246
633.00,0.0266
620.00,0.0321
607.00,0.0250
594.00,0.0273
581.00,0.0349
568.00,0.0582
555.00,0.0841
542.00,0.1343
529.00,0.0930
516.00,0.0456
503.00,0.0304
490.00,0.0239
477.00,0.0210
464.00,0.0191
451.00,0.0178
438.00,0.0166
425.00,0.0157
412.00,0.0154
400.00,0.0156