File: FTIR/Mary/2025_06_10_Standard_Polystyrene_2.csv
Created as New Dataset,Sample 642 By YargerLab Date Tuesday, June 10 2025
cm-1,A
4000.00,0.0019
3987.00,0.0018
3974.00,0.0018
3961.00,0.0017
3948.00,0.0016
3935.00,0.0014
3922.00,0.0015
3909.00,0.0017
3896.00,0.0012
3883.00,0.0010
3870.00,0.0008
3857.00,0.0015
3844.00,0.0010
3831.00,0.0010
3818.00,0.0008
3805.00,0.0012
3792.00,0.0015
3779.00,0.0013
3766.00,0.0011
3753.00,0.0005
3740.00,-0.0002
3727.00,0.0005
3714.00,0.0008
3701.00,0.0012
3688.00,0.0006
3675.00,0.0003
3662.00,0.0011
3649.00,-0.0002
3636.00,0.0009
3623.00,0.0006
3610.00,0.0001
3597.00,0.0008
3584.00,0.0008
3571.00,0.0011
3558.00,0.0015
3545.00,0.0012
3532.00,0.0017
3519.00,0.0018
3506.00,0.0018
3493.00,0.0022
3480.00,0.0024
3467.00,0.0026
3454.00,0.0028
3441.00,0.0028
3428.00,0.0030
3415.00,0.0031
3402.00,0.0034
3389.00,0.0034
3376.00,0.0036
3363.00,0.0038
3350.00,0.0039
3337.00,0.0041
3324.00,0.0040
3311.00,0.0040
3298.00,0.0041
3285.00,0.0041
3272.00,0.0039
3259.00,0.0038
3246.00,0.0035
3233.00,0.0033
3220.00,0.0031
3207.00,0.0029
3194.00,0.0029
3181.00,0.0029
3168.00,0.0028
3155.00,0.0026
3142.00,0.0025
3129.00,0.0025
3116.00,0.0025
3103.00,0.0035
3090.00,0.0042
3077.00,0.0054
3064.00,0.0072
3051.00,0.0057
3038.00,0.0061
3025.00,0.0145
3012.00,0.0048
2999.00,0.0040
2986.00,0.0021
2973.00,0.0022
2960.00,0.0044
2947.00,0.0075
2934.00,0.0143
2921.00,0.0197
2908.00,0.0148
2895.00,0.0093
2882.00,0.0068
2869.00,0.0061
2856.00,0.0091
2843.00,0.0079
2830.00,0.0037
2817.00,0.0032
2804.00,0.0029
2791.00,0.0027
2778.00,0.0026
2765.00,0.0025
2752.00,0.0025
2739.00,0.0025
2726.00,0.0024
2713.00,0.0025
2700.00,0.0025
2687.00,0.0024
2674.00,0.0024
2661.00,0.0027
2648.00,0.0027
2635.00,0.0027
2622.00,0.0026
2609.00,0.0024
2596.00,0.0023
2583.00,0.0023
2570.00,0.0022
2557.00,0.0021
2544.00,0.0020
2531.00,0.0019
2518.00,0.0019
2505.00,0.0018
2492.00,0.0018
2479.00,0.0019
2466.00,0.0017
2453.00,0.0019
2440.00,0.0018
2427.00,0.0016
2414.00,0.0015
2401.00,0.0015
2388.00,0.0014
2375.00,0.0015
2362.00,0.0017
2349.00,0.0019
2336.00,0.0021
2323.00,0.0028
2310.00,0.0021
2297.00,0.0021
2284.00,0.0022
2271.00,0.0018
2258.00,0.0018
2245.00,0.0016
2232.00,0.0017
2219.00,0.0014
2206.00,0.0014
2193.00,0.0014
2180.00,0.0011
2167.00,0.0019
2154.00,-0.0006
2141.00,-0.0001
2128.00,0.0003
2115.00,0.0010
2102.00,0.0012
2089.00,0.0013
2076.00,0.0011
2063.00,0.0011
2050.00,0.0014
2037.00,0.0007
2024.00,0.0001
2011.00,0.0008
1998.00,0.0006
1985.00,0.0012
1972.00,0.0005
1959.00,0.0007
1946.00,0.0018
1933.00,0.0017
1920.00,0.0009
1907.00,0.0012
1894.00,0.0014
1881.00,0.0020
1868.00,0.0025
1855.00,0.0015
1842.00,0.0011
1829.00,0.0016
1816.00,0.0022
1803.00,0.0032
1790.00,0.0021
1777.00,0.0021
1764.00,0.0030
1751.00,0.0047
1738.00,0.0065
1725.00,0.0054
1712.00,0.0044
1699.00,0.0032
1686.00,0.0029
1673.00,0.0037
1660.00,0.0039
1647.00,0.0037
1634.00,0.0037
1621.00,0.0040
1608.00,0.0073
1595.00,0.0091
1582.00,0.0072
1569.00,0.0034
1556.00,0.0034
1543.00,0.0040
1530.00,0.0027
1517.00,0.0031
1504.00,0.0044
1491.00,0.0316
1478.00,0.0055
1465.00,0.0065
1452.00,0.0365
1439.00,0.0151
1426.00,0.0067
1413.00,0.0056
1400.00,0.0049
1387.00,0.0070
1374.00,0.0103
1361.00,0.0098
1348.00,0.0090
1335.00,0.0090
1322.00,0.0094
1309.00,0.0096
1296.00,0.0083
1283.00,0.0079
1270.00,0.0074
1257.00,0.0071
1244.00,0.0077
1231.00,0.0077
1218.00,0.0067
1205.00,0.0076
1192.00,0.0085
1179.00,0.0103
1166.00,0.0086
1153.00,0.0119
1140.00,0.0070
1127.00,0.0076
1114.00,0.0107
1101.00,0.0113
1088.00,0.0117
1075.00,0.0153
1062.00,0.0167
1049.00,0.0143
1036.00,0.0170
1023.00,0.0231
1010.00,0.0158
997.00,0.0141
984.00,0.0145
971.00,0.0125
958.00,0.0109
945.00,0.0100
932.00,0.0081
919.00,0.0089
906.00,0.0169
893.00,0.0084
880.00,0.0068
867.00,0.0061
854.00,0.0062
841.00,0.0095
828.00,0.0056
815.00,0.0057
802.00,0.0064
789.00,0.0094
776.00,0.0195
763.00,0.0461
750.00,0.0585
737.00,0.0272
724.00,0.0110
711.00,0.0193
698.00,0.1479
685.00,0.0614
672.00,0.0302
659.00,0.0204
646.00,0.0146
633.00,0.0155
620.00,0.0182
607.00,0.0157
594.00,0.0165
581.00,0.0197
568.00,0.0297
555.00,0.0407
542.00,0.0602
529.00,0.0455
516.00,0.0259
503.00,0.0179
490.00,0.0157
477.00,0.0145
464.00,0.0134
451.00,0.0130
438.00,0.0123
425.00,0.0119
412.00,0.0128
400.00,0.0010