File: FTIR/Mary/2025_11_14_Polystyrene_Post_Scan3.csv
Created as New Dataset,Sample 368 By YargerLab Date Friday, November 14 2025
cm-1,A
4000.00,0.0001
3987.00,0.0001
3974.00,0.0000
3961.00,-0.0000
3948.00,0.0000
3935.00,0.0000
3922.00,0.0000
3909.00,0.0000
3896.00,0.0000
3883.00,0.0000
3870.00,0.0000
3857.00,0.0000
3844.00,0.0000
3831.00,0.0001
3818.00,0.0000
3805.00,0.0001
3792.00,0.0000
3779.00,-0.0000
3766.00,0.0000
3753.00,0.0001
3740.00,0.0001
3727.00,0.0001
3714.00,-0.0000
3701.00,0.0001
3688.00,-0.0000
3675.00,0.0001
3662.00,0.0001
3649.00,0.0004
3636.00,0.0003
3623.00,0.0004
3610.00,0.0004
3597.00,0.0005
3584.00,0.0005
3571.00,0.0007
3558.00,0.0008
3545.00,0.0010
3532.00,0.0011
3519.00,0.0013
3506.00,0.0014
3493.00,0.0015
3480.00,0.0018
3467.00,0.0018
3454.00,0.0019
3441.00,0.0019
3428.00,0.0021
3415.00,0.0021
3402.00,0.0022
3389.00,0.0023
3376.00,0.0024
3363.00,0.0025
3350.00,0.0026
3337.00,0.0026
3324.00,0.0028
3311.00,0.0028
3298.00,0.0028
3285.00,0.0028
3272.00,0.0026
3259.00,0.0025
3246.00,0.0023
3233.00,0.0023
3220.00,0.0021
3207.00,0.0022
3194.00,0.0020
3181.00,0.0018
3168.00,0.0018
3155.00,0.0016
3142.00,0.0015
3129.00,0.0015
3116.00,0.0020
3103.00,0.0047
3090.00,0.0065
3077.00,0.0100
3064.00,0.0149
3051.00,0.0106
3038.00,0.0114
3025.00,0.0346
3012.00,0.0080
2999.00,0.0082
2986.00,0.0043
2973.00,0.0050
2960.00,0.0080
2947.00,0.0148
2934.00,0.0313
2921.00,0.0461
2908.00,0.0325
2895.00,0.0184
2882.00,0.0123
2869.00,0.0097
2856.00,0.0161
2843.00,0.0137
2830.00,0.0036
2817.00,0.0026
2804.00,0.0022
2791.00,0.0018
2778.00,0.0017
2765.00,0.0014
2752.00,0.0013
2739.00,0.0013
2726.00,0.0013
2713.00,0.0013
2700.00,0.0011
2687.00,0.0012
2674.00,0.0012
2661.00,0.0015
2648.00,0.0016
2635.00,0.0016
2622.00,0.0013
2609.00,0.0013
2596.00,0.0011
2583.00,0.0010
2570.00,0.0007
2557.00,0.0007
2544.00,0.0007
2531.00,0.0006
2518.00,0.0006
2505.00,0.0005
2492.00,0.0004
2479.00,0.0003
2466.00,0.0002
2453.00,0.0003
2440.00,0.0001
2427.00,-0.0001
2414.00,-0.0001
2401.00,-0.0003
2388.00,-0.0002
2375.00,-0.0001
2362.00,0.0002
2349.00,0.0005
2336.00,0.0009
2323.00,0.0015
2310.00,0.0012
2297.00,0.0009
2284.00,0.0010
2271.00,0.0005
2258.00,0.0005
2245.00,0.0002
2232.00,0.0001
2219.00,-0.0005
2206.00,-0.0003
2193.00,0.0001
2180.00,-0.0003
2167.00,0.0001
2154.00,-0.0026
2141.00,-0.0018
2128.00,-0.0015
2115.00,-0.0004
2102.00,-0.0004
2089.00,-0.0004
2076.00,-0.0003
2063.00,-0.0008
2050.00,-0.0001
2037.00,-0.0003
2024.00,-0.0007
2011.00,-0.0010
1998.00,-0.0004
1985.00,0.0005
1972.00,-0.0004
1959.00,0.0012
1946.00,0.0039
1933.00,0.0020
1920.00,0.0004
1907.00,0.0002
1894.00,0.0014
1881.00,0.0031
1868.00,0.0037
1855.00,0.0014
1842.00,0.0005
1829.00,0.0013
1816.00,0.0028
1803.00,0.0051
1790.00,0.0032
1777.00,0.0035
1764.00,0.0046
1751.00,0.0106
1738.00,0.0122
1725.00,0.0076
1712.00,0.0053
1699.00,0.0056
1686.00,0.0067
1673.00,0.0080
1660.00,0.0077
1647.00,0.0061
1634.00,0.0050
1621.00,0.0051
1608.00,0.0143
1595.00,0.0194
1582.00,0.0159
1569.00,0.0063
1556.00,0.0067
1543.00,0.0080
1530.00,0.0057
1517.00,0.0049
1504.00,0.0077
1491.00,0.0807
1478.00,0.0101
1465.00,0.0105
1452.00,0.0916
1439.00,0.0332
1426.00,0.0110
1413.00,0.0089
1400.00,0.0086
1387.00,0.0135
1374.00,0.0201
1361.00,0.0188
1348.00,0.0168
1335.00,0.0151
1322.00,0.0162
1309.00,0.0168
1296.00,0.0141
1283.00,0.0132
1270.00,0.0114
1257.00,0.0105
1244.00,0.0110
1231.00,0.0104
1218.00,0.0100
1205.00,0.0122
1192.00,0.0152
1179.00,0.0203
1166.00,0.0133
1153.00,0.0207
1140.00,0.0100
1127.00,0.0097
1114.00,0.0133
1101.00,0.0133
1088.00,0.0145
1075.00,0.0219
1062.00,0.0214
1049.00,0.0135
1036.00,0.0186
1023.00,0.0340
1010.00,0.0174
997.00,0.0133
984.00,0.0150
971.00,0.0144
958.00,0.0139
945.00,0.0136
932.00,0.0097
919.00,0.0115
906.00,0.0300
893.00,0.0098
880.00,0.0068
867.00,0.0062
854.00,0.0068
841.00,0.0145
828.00,0.0062
815.00,0.0063
802.00,0.0072
789.00,0.0141
776.00,0.0378
763.00,0.1042
750.00,0.1367
737.00,0.0555
724.00,0.0134
711.00,0.0300
698.00,0.3828
685.00,0.1318
672.00,0.0586
659.00,0.0354
646.00,0.0235
633.00,0.0253
620.00,0.0298
607.00,0.0232
594.00,0.0252
581.00,0.0321
568.00,0.0539
555.00,0.0776
542.00,0.1237
529.00,0.0885
516.00,0.0441
503.00,0.0296
490.00,0.0222
477.00,0.0197
464.00,0.0181
451.00,0.0168
438.00,0.0158
425.00,0.0146
412.00,0.0146
400.00,0.0136