File: FTIR/Mary/2025_12_04_Polystyrene_Standard_Scan3.csv
Created as New Dataset,Sample 393 By YargerLab Date Thursday, December 04 2025
cm-1,A
4000.00,0.0003
3987.00,0.0002
3974.00,0.0002
3961.00,0.0002
3948.00,0.0002
3935.00,0.0002
3922.00,0.0002
3909.00,0.0002
3896.00,0.0002
3883.00,0.0002
3870.00,0.0002
3857.00,0.0003
3844.00,0.0002
3831.00,0.0003
3818.00,0.0004
3805.00,0.0004
3792.00,0.0003
3779.00,0.0002
3766.00,0.0002
3753.00,0.0004
3740.00,0.0003
3727.00,0.0002
3714.00,0.0002
3701.00,0.0002
3688.00,0.0003
3675.00,0.0002
3662.00,0.0002
3649.00,0.0003
3636.00,0.0002
3623.00,0.0003
3610.00,0.0003
3597.00,0.0003
3584.00,0.0005
3571.00,0.0004
3558.00,0.0006
3545.00,0.0007
3532.00,0.0008
3519.00,0.0009
3506.00,0.0009
3493.00,0.0011
3480.00,0.0011
3467.00,0.0012
3454.00,0.0012
3441.00,0.0013
3428.00,0.0013
3415.00,0.0013
3402.00,0.0014
3389.00,0.0014
3376.00,0.0014
3363.00,0.0015
3350.00,0.0016
3337.00,0.0015
3324.00,0.0015
3311.00,0.0016
3298.00,0.0015
3285.00,0.0015
3272.00,0.0015
3259.00,0.0014
3246.00,0.0014
3233.00,0.0013
3220.00,0.0012
3207.00,0.0013
3194.00,0.0012
3181.00,0.0011
3168.00,0.0011
3155.00,0.0011
3142.00,0.0010
3129.00,0.0010
3116.00,0.0012
3103.00,0.0023
3090.00,0.0029
3077.00,0.0043
3064.00,0.0060
3051.00,0.0045
3038.00,0.0048
3025.00,0.0135
3012.00,0.0038
2999.00,0.0037
2986.00,0.0022
2973.00,0.0029
2960.00,0.0045
2947.00,0.0072
2934.00,0.0139
2921.00,0.0195
2908.00,0.0141
2895.00,0.0083
2882.00,0.0057
2869.00,0.0050
2856.00,0.0079
2843.00,0.0066
2830.00,0.0021
2817.00,0.0015
2804.00,0.0013
2791.00,0.0011
2778.00,0.0011
2765.00,0.0010
2752.00,0.0009
2739.00,0.0009
2726.00,0.0008
2713.00,0.0009
2700.00,0.0009
2687.00,0.0009
2674.00,0.0008
2661.00,0.0011
2648.00,0.0013
2635.00,0.0012
2622.00,0.0011
2609.00,0.0010
2596.00,0.0009
2583.00,0.0009
2570.00,0.0008
2557.00,0.0007
2544.00,0.0007
2531.00,0.0006
2518.00,0.0006
2505.00,0.0006
2492.00,0.0005
2479.00,0.0004
2466.00,0.0004
2453.00,0.0005
2440.00,0.0004
2427.00,0.0003
2414.00,0.0003
2401.00,0.0001
2388.00,0.0000
2375.00,0.0001
2362.00,0.0003
2349.00,0.0003
2336.00,0.0006
2323.00,0.0013
2310.00,0.0008
2297.00,0.0007
2284.00,0.0010
2271.00,0.0006
2258.00,0.0006
2245.00,0.0006
2232.00,0.0004
2219.00,0.0006
2206.00,0.0004
2193.00,0.0006
2180.00,0.0002
2167.00,0.0012
2154.00,-0.0015
2141.00,-0.0008
2128.00,-0.0009
2115.00,0.0001
2102.00,0.0001
2089.00,0.0000
2076.00,0.0003
2063.00,0.0001
2050.00,0.0009
2037.00,0.0001
2024.00,-0.0004
2011.00,-0.0001
1998.00,-0.0004
1985.00,0.0006
1972.00,-0.0003
1959.00,0.0000
1946.00,0.0013
1933.00,0.0006
1920.00,0.0001
1907.00,0.0000
1894.00,0.0004
1881.00,0.0012
1868.00,0.0012
1855.00,0.0005
1842.00,0.0001
1829.00,0.0004
1816.00,0.0009
1803.00,0.0019
1790.00,0.0013
1777.00,0.0015
1764.00,0.0021
1751.00,0.0047
1738.00,0.0065
1725.00,0.0049
1712.00,0.0038
1699.00,0.0036
1686.00,0.0040
1673.00,0.0046
1660.00,0.0047
1647.00,0.0041
1634.00,0.0034
1621.00,0.0031
1608.00,0.0060
1595.00,0.0079
1582.00,0.0064
1569.00,0.0029
1556.00,0.0030
1543.00,0.0035
1530.00,0.0028
1517.00,0.0024
1504.00,0.0035
1491.00,0.0297
1478.00,0.0043
1465.00,0.0054
1452.00,0.0329
1439.00,0.0131
1426.00,0.0050
1413.00,0.0044
1400.00,0.0043
1387.00,0.0060
1374.00,0.0085
1361.00,0.0079
1348.00,0.0071
1335.00,0.0065
1322.00,0.0070
1309.00,0.0071
1296.00,0.0063
1283.00,0.0061
1270.00,0.0055
1257.00,0.0052
1244.00,0.0055
1231.00,0.0053
1218.00,0.0054
1205.00,0.0063
1192.00,0.0076
1179.00,0.0097
1166.00,0.0071
1153.00,0.0097
1140.00,0.0055
1127.00,0.0052
1114.00,0.0065
1101.00,0.0067
1088.00,0.0074
1075.00,0.0103
1062.00,0.0100
1049.00,0.0071
1036.00,0.0089
1023.00,0.0142
1010.00,0.0081
997.00,0.0066
984.00,0.0073
971.00,0.0071
958.00,0.0068
945.00,0.0065
932.00,0.0050
919.00,0.0057
906.00,0.0123
893.00,0.0049
880.00,0.0037
867.00,0.0032
854.00,0.0034
841.00,0.0061
828.00,0.0032
815.00,0.0030
802.00,0.0035
789.00,0.0061
776.00,0.0146
763.00,0.0369
750.00,0.0469
737.00,0.0204
724.00,0.0061
711.00,0.0127
698.00,0.1089
685.00,0.0442
672.00,0.0199
659.00,0.0121
646.00,0.0078
633.00,0.0085
620.00,0.0102
607.00,0.0080
594.00,0.0088
581.00,0.0111
568.00,0.0188
555.00,0.0270
542.00,0.0419
529.00,0.0305
516.00,0.0151
503.00,0.0101
490.00,0.0084
477.00,0.0076
464.00,0.0067
451.00,0.0067
438.00,0.0057
425.00,0.0052
412.00,0.0047
400.00,0.0053