File: FTIR/Mary/2025_06_10_Standard_Polystyrene_midset_1.csv
Created as New Dataset,Sample 649 By YargerLab Date Tuesday, June 10 2025
cm-1,A
4000.00,0.0040
3987.00,0.0040
3974.00,0.0039
3961.00,0.0039
3948.00,0.0039
3935.00,0.0040
3922.00,0.0039
3909.00,0.0039
3896.00,0.0041
3883.00,0.0038
3870.00,0.0039
3857.00,0.0038
3844.00,0.0039
3831.00,0.0038
3818.00,0.0037
3805.00,0.0038
3792.00,0.0038
3779.00,0.0038
3766.00,0.0038
3753.00,0.0037
3740.00,0.0037
3727.00,0.0038
3714.00,0.0037
3701.00,0.0036
3688.00,0.0036
3675.00,0.0039
3662.00,0.0038
3649.00,0.0039
3636.00,0.0038
3623.00,0.0040
3610.00,0.0042
3597.00,0.0043
3584.00,0.0044
3571.00,0.0045
3558.00,0.0046
3545.00,0.0048
3532.00,0.0049
3519.00,0.0053
3506.00,0.0052
3493.00,0.0054
3480.00,0.0056
3467.00,0.0057
3454.00,0.0061
3441.00,0.0061
3428.00,0.0064
3415.00,0.0068
3402.00,0.0071
3389.00,0.0074
3376.00,0.0079
3363.00,0.0084
3350.00,0.0090
3337.00,0.0100
3324.00,0.0107
3311.00,0.0113
3298.00,0.0119
3285.00,0.0119
3272.00,0.0113
3259.00,0.0104
3246.00,0.0097
3233.00,0.0092
3220.00,0.0086
3207.00,0.0083
3194.00,0.0079
3181.00,0.0074
3168.00,0.0071
3155.00,0.0066
3142.00,0.0066
3129.00,0.0064
3116.00,0.0065
3103.00,0.0077
3090.00,0.0085
3077.00,0.0098
3064.00,0.0117
3051.00,0.0100
3038.00,0.0101
3025.00,0.0188
3012.00,0.0088
2999.00,0.0085
2986.00,0.0070
2973.00,0.0075
2960.00,0.0088
2947.00,0.0113
2934.00,0.0187
2921.00,0.0259
2908.00,0.0197
2895.00,0.0135
2882.00,0.0107
2869.00,0.0095
2856.00,0.0127
2843.00,0.0117
2830.00,0.0068
2817.00,0.0061
2804.00,0.0058
2791.00,0.0054
2778.00,0.0053
2765.00,0.0051
2752.00,0.0050
2739.00,0.0050
2726.00,0.0049
2713.00,0.0048
2700.00,0.0048
2687.00,0.0048
2674.00,0.0047
2661.00,0.0049
2648.00,0.0049
2635.00,0.0049
2622.00,0.0048
2609.00,0.0047
2596.00,0.0046
2583.00,0.0044
2570.00,0.0044
2557.00,0.0043
2544.00,0.0042
2531.00,0.0042
2518.00,0.0042
2505.00,0.0041
2492.00,0.0040
2479.00,0.0040
2466.00,0.0039
2453.00,0.0040
2440.00,0.0039
2427.00,0.0037
2414.00,0.0037
2401.00,0.0036
2388.00,0.0036
2375.00,0.0035
2362.00,0.0037
2349.00,0.0037
2336.00,0.0039
2323.00,0.0044
2310.00,0.0042
2297.00,0.0041
2284.00,0.0042
2271.00,0.0039
2258.00,0.0038
2245.00,0.0037
2232.00,0.0038
2219.00,0.0039
2206.00,0.0038
2193.00,0.0037
2180.00,0.0033
2167.00,0.0043
2154.00,0.0022
2141.00,0.0023
2128.00,0.0027
2115.00,0.0032
2102.00,0.0031
2089.00,0.0030
2076.00,0.0036
2063.00,0.0028
2050.00,0.0037
2037.00,0.0032
2024.00,0.0027
2011.00,0.0006
1998.00,0.0027
1985.00,0.0041
1972.00,0.0029
1959.00,0.0033
1946.00,0.0043
1933.00,0.0035
1920.00,0.0030
1907.00,0.0029
1894.00,0.0033
1881.00,0.0039
1868.00,0.0041
1855.00,0.0032
1842.00,0.0029
1829.00,0.0030
1816.00,0.0034
1803.00,0.0042
1790.00,0.0035
1777.00,0.0030
1764.00,0.0029
1751.00,0.0031
1738.00,0.0034
1725.00,0.0032
1712.00,0.0045
1699.00,0.0097
1686.00,0.0132
1673.00,0.0167
1660.00,0.0193
1647.00,0.0211
1634.00,0.0206
1621.00,0.0168
1608.00,0.0151
1595.00,0.0146
1582.00,0.0129
1569.00,0.0108
1556.00,0.0137
1543.00,0.0170
1530.00,0.0188
1517.00,0.0194
1504.00,0.0183
1491.00,0.0441
1478.00,0.0123
1465.00,0.0122
1452.00,0.0449
1439.00,0.0218
1426.00,0.0112
1413.00,0.0100
1400.00,0.0098
1387.00,0.0118
1374.00,0.0149
1361.00,0.0138
1348.00,0.0136
1335.00,0.0124
1322.00,0.0123
1309.00,0.0128
1296.00,0.0110
1283.00,0.0106
1270.00,0.0103
1257.00,0.0100
1244.00,0.0105
1231.00,0.0120
1218.00,0.0112
1205.00,0.0105
1192.00,0.0110
1179.00,0.0124
1166.00,0.0095
1153.00,0.0128
1140.00,0.0075
1127.00,0.0075
1114.00,0.0090
1101.00,0.0094
1088.00,0.0101
1075.00,0.0140
1062.00,0.0140
1049.00,0.0106
1036.00,0.0128
1023.00,0.0197
1010.00,0.0125
997.00,0.0105
984.00,0.0111
971.00,0.0108
958.00,0.0103
945.00,0.0099
932.00,0.0080
919.00,0.0088
906.00,0.0173
893.00,0.0076
880.00,0.0060
867.00,0.0054
854.00,0.0061
841.00,0.0098
828.00,0.0064
815.00,0.0060
802.00,0.0067
789.00,0.0102
776.00,0.0212
763.00,0.0513
750.00,0.0669
737.00,0.0315
724.00,0.0120
711.00,0.0213
698.00,0.1682
685.00,0.0741
672.00,0.0362
659.00,0.0242
646.00,0.0177
633.00,0.0186
620.00,0.0210
607.00,0.0175
594.00,0.0181
581.00,0.0215
568.00,0.0325
555.00,0.0451
542.00,0.0683
529.00,0.0524
516.00,0.0288
503.00,0.0213
490.00,0.0166
477.00,0.0144
464.00,0.0136
451.00,0.0125
438.00,0.0110
425.00,0.0096
412.00,0.0106
400.00,0.0052