File: FTIR/Mary/2025_10_03_Polystyrene_PostScan_Calibration_1.csv
Created as New Dataset,Sample 180 By YargerLab Date Friday, October 03 2025
cm-1,A
4000.00,0.0013
3987.00,0.0013
3974.00,0.0012
3961.00,0.0012
3948.00,0.0012
3935.00,0.0012
3922.00,0.0012
3909.00,0.0012
3896.00,0.0012
3883.00,0.0011
3870.00,0.0011
3857.00,0.0012
3844.00,0.0011
3831.00,0.0012
3818.00,0.0011
3805.00,0.0013
3792.00,0.0013
3779.00,0.0013
3766.00,0.0012
3753.00,0.0011
3740.00,0.0010
3727.00,0.0011
3714.00,0.0011
3701.00,0.0012
3688.00,0.0011
3675.00,0.0011
3662.00,0.0012
3649.00,0.0011
3636.00,0.0013
3623.00,0.0012
3610.00,0.0012
3597.00,0.0012
3584.00,0.0013
3571.00,0.0014
3558.00,0.0015
3545.00,0.0016
3532.00,0.0017
3519.00,0.0019
3506.00,0.0020
3493.00,0.0021
3480.00,0.0023
3467.00,0.0023
3454.00,0.0024
3441.00,0.0025
3428.00,0.0025
3415.00,0.0026
3402.00,0.0027
3389.00,0.0027
3376.00,0.0028
3363.00,0.0029
3350.00,0.0030
3337.00,0.0031
3324.00,0.0032
3311.00,0.0033
3298.00,0.0034
3285.00,0.0034
3272.00,0.0033
3259.00,0.0032
3246.00,0.0031
3233.00,0.0029
3220.00,0.0029
3207.00,0.0029
3194.00,0.0028
3181.00,0.0026
3168.00,0.0026
3155.00,0.0025
3142.00,0.0024
3129.00,0.0024
3116.00,0.0027
3103.00,0.0041
3090.00,0.0054
3077.00,0.0069
3064.00,0.0096
3051.00,0.0073
3038.00,0.0081
3025.00,0.0192
3012.00,0.0066
2999.00,0.0063
2986.00,0.0045
2973.00,0.0054
2960.00,0.0080
2947.00,0.0117
2934.00,0.0216
2921.00,0.0288
2908.00,0.0207
2895.00,0.0126
2882.00,0.0089
2869.00,0.0080
2856.00,0.0126
2843.00,0.0104
2830.00,0.0044
2817.00,0.0034
2804.00,0.0031
2791.00,0.0029
2778.00,0.0028
2765.00,0.0027
2752.00,0.0025
2739.00,0.0025
2726.00,0.0025
2713.00,0.0024
2700.00,0.0024
2687.00,0.0024
2674.00,0.0024
2661.00,0.0028
2648.00,0.0029
2635.00,0.0029
2622.00,0.0028
2609.00,0.0026
2596.00,0.0026
2583.00,0.0024
2570.00,0.0023
2557.00,0.0021
2544.00,0.0021
2531.00,0.0020
2518.00,0.0020
2505.00,0.0019
2492.00,0.0019
2479.00,0.0018
2466.00,0.0018
2453.00,0.0018
2440.00,0.0017
2427.00,0.0016
2414.00,0.0015
2401.00,0.0014
2388.00,0.0013
2375.00,0.0014
2362.00,0.0015
2349.00,0.0018
2336.00,0.0021
2323.00,0.0031
2310.00,0.0025
2297.00,0.0023
2284.00,0.0026
2271.00,0.0022
2258.00,0.0019
2245.00,0.0017
2232.00,0.0016
2219.00,0.0018
2206.00,0.0018
2193.00,0.0020
2180.00,0.0017
2167.00,0.0027
2154.00,-0.0010
2141.00,-0.0005
2128.00,0.0001
2115.00,0.0014
2102.00,0.0013
2089.00,0.0012
2076.00,0.0012
2063.00,0.0011
2050.00,0.0018
2037.00,0.0013
2024.00,0.0005
2011.00,0.0008
1998.00,0.0006
1985.00,0.0018
1972.00,0.0003
1959.00,0.0016
1946.00,0.0029
1933.00,0.0019
1920.00,0.0012
1907.00,0.0013
1894.00,0.0019
1881.00,0.0026
1868.00,0.0030
1855.00,0.0017
1842.00,0.0013
1829.00,0.0016
1816.00,0.0023
1803.00,0.0035
1790.00,0.0025
1777.00,0.0022
1764.00,0.0028
1751.00,0.0056
1738.00,0.0077
1725.00,0.0060
1712.00,0.0043
1699.00,0.0041
1686.00,0.0053
1673.00,0.0066
1660.00,0.0076
1647.00,0.0074
1634.00,0.0066
1621.00,0.0058
1608.00,0.0101
1595.00,0.0116
1582.00,0.0097
1569.00,0.0051
1556.00,0.0055
1543.00,0.0071
1530.00,0.0062
1517.00,0.0057
1504.00,0.0069
1491.00,0.0395
1478.00,0.0075
1465.00,0.0087
1452.00,0.0452
1439.00,0.0189
1426.00,0.0078
1413.00,0.0067
1400.00,0.0064
1387.00,0.0092
1374.00,0.0126
1361.00,0.0112
1348.00,0.0102
1335.00,0.0098
1322.00,0.0101
1309.00,0.0104
1296.00,0.0091
1283.00,0.0085
1270.00,0.0080
1257.00,0.0078
1244.00,0.0080
1231.00,0.0078
1218.00,0.0078
1205.00,0.0087
1192.00,0.0100
1179.00,0.0125
1166.00,0.0094
1153.00,0.0117
1140.00,0.0062
1127.00,0.0055
1114.00,0.0064
1101.00,0.0069
1088.00,0.0087
1075.00,0.0130
1062.00,0.0125
1049.00,0.0096
1036.00,0.0124
1023.00,0.0185
1010.00,0.0114
997.00,0.0094
984.00,0.0102
971.00,0.0100
958.00,0.0095
945.00,0.0088
932.00,0.0072
919.00,0.0081
906.00,0.0163
893.00,0.0076
880.00,0.0059
867.00,0.0054
854.00,0.0057
841.00,0.0091
828.00,0.0055
815.00,0.0053
802.00,0.0061
789.00,0.0095
776.00,0.0207
763.00,0.0496
750.00,0.0637
737.00,0.0301
724.00,0.0104
711.00,0.0196
698.00,0.1498
685.00,0.0628
672.00,0.0311
659.00,0.0204
646.00,0.0148
633.00,0.0155
620.00,0.0178
607.00,0.0149
594.00,0.0159
581.00,0.0191
568.00,0.0291
555.00,0.0398
542.00,0.0601
529.00,0.0453
516.00,0.0251
503.00,0.0184
490.00,0.0151
477.00,0.0136
464.00,0.0131
451.00,0.0126
438.00,0.0121
425.00,0.0108
412.00,0.0107
400.00,0.0077