File: FTIR/Mary/2025_06_11_Standard_Polystyrene_postscan1.csv
Created as New Dataset,Sample 668 By YargerLab Date Wednesday, June 11 2025
cm-1,A
4000.00,0.0015
3987.00,0.0017
3974.00,0.0014
3961.00,0.0014
3948.00,0.0014
3935.00,0.0014
3922.00,0.0015
3909.00,0.0016
3896.00,0.0014
3883.00,0.0012
3870.00,0.0015
3857.00,0.0015
3844.00,0.0014
3831.00,0.0017
3818.00,0.0013
3805.00,0.0013
3792.00,0.0013
3779.00,0.0016
3766.00,0.0015
3753.00,0.0015
3740.00,0.0014
3727.00,0.0016
3714.00,0.0015
3701.00,0.0013
3688.00,0.0012
3675.00,0.0015
3662.00,0.0013
3649.00,0.0011
3636.00,0.0012
3623.00,0.0016
3610.00,0.0009
3597.00,0.0012
3584.00,0.0011
3571.00,0.0011
3558.00,0.0012
3545.00,0.0012
3532.00,0.0014
3519.00,0.0019
3506.00,0.0012
3493.00,0.0013
3480.00,0.0014
3467.00,0.0012
3454.00,0.0015
3441.00,0.0016
3428.00,0.0014
3415.00,0.0014
3402.00,0.0014
3389.00,0.0015
3376.00,0.0015
3363.00,0.0013
3350.00,0.0014
3337.00,0.0009
3324.00,0.0010
3311.00,0.0011
3298.00,0.0007
3285.00,0.0007
3272.00,0.0009
3259.00,0.0008
3246.00,0.0012
3233.00,0.0014
3220.00,0.0014
3207.00,0.0014
3194.00,0.0017
3181.00,0.0016
3168.00,0.0017
3155.00,0.0018
3142.00,0.0017
3129.00,0.0018
3116.00,0.0019
3103.00,0.0031
3090.00,0.0041
3077.00,0.0050
3064.00,0.0069
3051.00,0.0054
3038.00,0.0059
3025.00,0.0148
3012.00,0.0050
2999.00,0.0047
2986.00,0.0029
2973.00,0.0030
2960.00,0.0038
2947.00,0.0062
2934.00,0.0122
2921.00,0.0164
2908.00,0.0126
2895.00,0.0078
2882.00,0.0059
2869.00,0.0046
2856.00,0.0066
2843.00,0.0065
2830.00,0.0030
2817.00,0.0023
2804.00,0.0022
2791.00,0.0022
2778.00,0.0021
2765.00,0.0017
2752.00,0.0018
2739.00,0.0018
2726.00,0.0018
2713.00,0.0017
2700.00,0.0019
2687.00,0.0018
2674.00,0.0017
2661.00,0.0021
2648.00,0.0022
2635.00,0.0019
2622.00,0.0020
2609.00,0.0019
2596.00,0.0017
2583.00,0.0017
2570.00,0.0018
2557.00,0.0014
2544.00,0.0014
2531.00,0.0013
2518.00,0.0015
2505.00,0.0010
2492.00,0.0014
2479.00,0.0015
2466.00,0.0012
2453.00,0.0015
2440.00,0.0012
2427.00,0.0013
2414.00,0.0010
2401.00,0.0011
2388.00,0.0010
2375.00,0.0009
2362.00,0.0009
2349.00,0.0009
2336.00,0.0012
2323.00,0.0019
2310.00,0.0016
2297.00,0.0017
2284.00,0.0018
2271.00,0.0016
2258.00,0.0010
2245.00,0.0011
2232.00,0.0011
2219.00,0.0007
2206.00,0.0012
2193.00,0.0011
2180.00,0.0001
2167.00,0.0028
2154.00,-0.0012
2141.00,0.0005
2128.00,-0.0002
2115.00,0.0007
2102.00,0.0008
2089.00,0.0008
2076.00,0.0009
2063.00,0.0011
2050.00,0.0019
2037.00,0.0012
2024.00,0.0003
2011.00,0.0003
1998.00,0.0010
1985.00,0.0012
1972.00,0.0005
1959.00,0.0005
1946.00,0.0021
1933.00,0.0015
1920.00,0.0013
1907.00,0.0006
1894.00,0.0011
1881.00,0.0020
1868.00,0.0022
1855.00,0.0013
1842.00,0.0010
1829.00,0.0014
1816.00,0.0017
1803.00,0.0024
1790.00,0.0018
1777.00,0.0014
1764.00,0.0014
1751.00,0.0022
1738.00,0.0025
1725.00,0.0020
1712.00,0.0018
1699.00,0.0017
1686.00,0.0023
1673.00,0.0026
1660.00,0.0024
1647.00,0.0021
1634.00,0.0022
1621.00,0.0031
1608.00,0.0073
1595.00,0.0087
1582.00,0.0070
1569.00,0.0028
1556.00,0.0028
1543.00,0.0035
1530.00,0.0027
1517.00,0.0023
1504.00,0.0040
1491.00,0.0320
1478.00,0.0052
1465.00,0.0052
1452.00,0.0354
1439.00,0.0138
1426.00,0.0048
1413.00,0.0041
1400.00,0.0043
1387.00,0.0062
1374.00,0.0086
1361.00,0.0079
1348.00,0.0073
1335.00,0.0066
1322.00,0.0070
1309.00,0.0071
1296.00,0.0058
1283.00,0.0054
1270.00,0.0044
1257.00,0.0035
1244.00,0.0043
1231.00,0.0039
1218.00,0.0043
1205.00,0.0054
1192.00,0.0067
1179.00,0.0082
1166.00,0.0048
1153.00,0.0081
1140.00,0.0039
1127.00,0.0034
1114.00,0.0046
1101.00,0.0044
1088.00,0.0062
1075.00,0.0097
1062.00,0.0089
1049.00,0.0058
1036.00,0.0077
1023.00,0.0139
1010.00,0.0066
997.00,0.0053
984.00,0.0062
971.00,0.0070
958.00,0.0070
945.00,0.0069
932.00,0.0051
919.00,0.0063
906.00,0.0145
893.00,0.0058
880.00,0.0042
867.00,0.0036
854.00,0.0039
841.00,0.0073
828.00,0.0034
815.00,0.0037
802.00,0.0039
789.00,0.0071
776.00,0.0173
763.00,0.0439
750.00,0.0566
737.00,0.0247
724.00,0.0071
711.00,0.0151
698.00,0.1418
685.00,0.0587
672.00,0.0266
659.00,0.0161
646.00,0.0103
633.00,0.0108
620.00,0.0128
607.00,0.0101
594.00,0.0110
581.00,0.0144
568.00,0.0241
555.00,0.0345
542.00,0.0550
529.00,0.0411
516.00,0.0201
503.00,0.0215
490.00,0.0116
477.00,0.0095
464.00,0.0093
451.00,0.0070
438.00,0.0075
425.00,0.0063
412.00,0.0056
400.00,-0.0000