File: FTIR/Mary/2025_11_16_Polystyrene_Scan1.csv
Created as New Dataset,Sample 369 By YargerLab Date Friday, November 14 2025
cm-1,A
4000.00,0.0028
3987.00,0.0027
3974.00,0.0028
3961.00,0.0027
3948.00,0.0027
3935.00,0.0028
3922.00,0.0028
3909.00,0.0027
3896.00,0.0027
3883.00,0.0028
3870.00,0.0029
3857.00,0.0029
3844.00,0.0028
3831.00,0.0029
3818.00,0.0030
3805.00,0.0029
3792.00,0.0028
3779.00,0.0027
3766.00,0.0029
3753.00,0.0031
3740.00,0.0029
3727.00,0.0027
3714.00,0.0028
3701.00,0.0028
3688.00,0.0030
3675.00,0.0030
3662.00,0.0029
3649.00,0.0032
3636.00,0.0031
3623.00,0.0035
3610.00,0.0037
3597.00,0.0038
3584.00,0.0040
3571.00,0.0042
3558.00,0.0046
3545.00,0.0049
3532.00,0.0053
3519.00,0.0056
3506.00,0.0058
3493.00,0.0062
3480.00,0.0065
3467.00,0.0068
3454.00,0.0070
3441.00,0.0072
3428.00,0.0074
3415.00,0.0077
3402.00,0.0078
3389.00,0.0081
3376.00,0.0082
3363.00,0.0083
3350.00,0.0086
3337.00,0.0088
3324.00,0.0090
3311.00,0.0092
3298.00,0.0094
3285.00,0.0094
3272.00,0.0092
3259.00,0.0089
3246.00,0.0086
3233.00,0.0083
3220.00,0.0081
3207.00,0.0080
3194.00,0.0078
3181.00,0.0075
3168.00,0.0073
3155.00,0.0069
3142.00,0.0067
3129.00,0.0067
3116.00,0.0070
3103.00,0.0096
3090.00,0.0112
3077.00,0.0145
3064.00,0.0192
3051.00,0.0150
3038.00,0.0157
3025.00,0.0376
3012.00,0.0134
2999.00,0.0131
2986.00,0.0098
2973.00,0.0115
2960.00,0.0163
2947.00,0.0233
2934.00,0.0420
2921.00,0.0579
2908.00,0.0417
2895.00,0.0263
2882.00,0.0195
2869.00,0.0177
2856.00,0.0262
2843.00,0.0215
2830.00,0.0096
2817.00,0.0079
2804.00,0.0073
2791.00,0.0067
2778.00,0.0064
2765.00,0.0061
2752.00,0.0059
2739.00,0.0058
2726.00,0.0057
2713.00,0.0057
2700.00,0.0056
2687.00,0.0055
2674.00,0.0055
2661.00,0.0058
2648.00,0.0059
2635.00,0.0059
2622.00,0.0055
2609.00,0.0054
2596.00,0.0052
2583.00,0.0052
2570.00,0.0048
2557.00,0.0047
2544.00,0.0047
2531.00,0.0047
2518.00,0.0046
2505.00,0.0045
2492.00,0.0045
2479.00,0.0044
2466.00,0.0041
2453.00,0.0041
2440.00,0.0040
2427.00,0.0038
2414.00,0.0037
2401.00,0.0036
2388.00,0.0035
2375.00,0.0037
2362.00,0.0039
2349.00,0.0041
2336.00,0.0045
2323.00,0.0054
2310.00,0.0048
2297.00,0.0045
2284.00,0.0046
2271.00,0.0041
2258.00,0.0040
2245.00,0.0038
2232.00,0.0036
2219.00,0.0035
2206.00,0.0036
2193.00,0.0036
2180.00,0.0032
2167.00,0.0043
2154.00,0.0006
2141.00,0.0016
2128.00,0.0019
2115.00,0.0032
2102.00,0.0032
2089.00,0.0031
2076.00,0.0033
2063.00,0.0030
2050.00,0.0036
2037.00,0.0034
2024.00,0.0022
2011.00,0.0025
1998.00,0.0025
1985.00,0.0039
1972.00,0.0028
1959.00,0.0041
1946.00,0.0067
1933.00,0.0050
1920.00,0.0035
1907.00,0.0035
1894.00,0.0045
1881.00,0.0060
1868.00,0.0066
1855.00,0.0046
1842.00,0.0037
1829.00,0.0043
1816.00,0.0056
1803.00,0.0077
1790.00,0.0062
1777.00,0.0063
1764.00,0.0077
1751.00,0.0144
1738.00,0.0189
1725.00,0.0145
1712.00,0.0127
1699.00,0.0126
1686.00,0.0145
1673.00,0.0177
1660.00,0.0198
1647.00,0.0193
1634.00,0.0178
1621.00,0.0164
1608.00,0.0228
1595.00,0.0263
1582.00,0.0226
1569.00,0.0141
1556.00,0.0151
1543.00,0.0170
1530.00,0.0145
1517.00,0.0133
1504.00,0.0148
1491.00,0.0795
1478.00,0.0167
1465.00,0.0202
1452.00,0.0915
1439.00,0.0398
1426.00,0.0197
1413.00,0.0177
1400.00,0.0171
1387.00,0.0212
1374.00,0.0273
1361.00,0.0252
1348.00,0.0231
1335.00,0.0216
1322.00,0.0228
1309.00,0.0233
1296.00,0.0213
1283.00,0.0210
1270.00,0.0195
1257.00,0.0190
1244.00,0.0200
1231.00,0.0195
1218.00,0.0194
1205.00,0.0212
1192.00,0.0242
1179.00,0.0290
1166.00,0.0229
1153.00,0.0288
1140.00,0.0186
1127.00,0.0179
1114.00,0.0211
1101.00,0.0216
1088.00,0.0237
1075.00,0.0310
1062.00,0.0307
1049.00,0.0245
1036.00,0.0286
1023.00,0.0413
1010.00,0.0261
997.00,0.0216
984.00,0.0222
971.00,0.0215
958.00,0.0206
945.00,0.0196
932.00,0.0165
919.00,0.0177
906.00,0.0335
893.00,0.0164
880.00,0.0136
867.00,0.0126
854.00,0.0132
841.00,0.0200
828.00,0.0130
815.00,0.0125
802.00,0.0135
789.00,0.0195
776.00,0.0401
763.00,0.0969
750.00,0.1262
737.00,0.0574
724.00,0.0216
711.00,0.0361
698.00,0.3217
685.00,0.1215
672.00,0.0600
659.00,0.0401
646.00,0.0300
633.00,0.0314
620.00,0.0354
607.00,0.0299
594.00,0.0318
581.00,0.0376
568.00,0.0560
555.00,0.0762
542.00,0.1154
529.00,0.0855
516.00,0.0469
503.00,0.0345
490.00,0.0290
477.00,0.0270
464.00,0.0247
451.00,0.0231
438.00,0.0239
425.00,0.0213
412.00,0.0200
400.00,0.0192