File: FTIR/Mary/2025_06_27_Polystyrene_Std_MEL_Scan3.csv
Created as New Dataset,Sample 744 By YargerLab Date Friday, June 27 2025
cm-1,A
4000.00,0.0015
3987.00,0.0015
3974.00,0.0015
3961.00,0.0015
3948.00,0.0015
3935.00,0.0015
3922.00,0.0015
3909.00,0.0015
3896.00,0.0015
3883.00,0.0015
3870.00,0.0015
3857.00,0.0014
3844.00,0.0015
3831.00,0.0015
3818.00,0.0016
3805.00,0.0016
3792.00,0.0015
3779.00,0.0015
3766.00,0.0015
3753.00,0.0017
3740.00,0.0016
3727.00,0.0015
3714.00,0.0015
3701.00,0.0015
3688.00,0.0014
3675.00,0.0014
3662.00,0.0012
3649.00,0.0014
3636.00,0.0013
3623.00,0.0015
3610.00,0.0015
3597.00,0.0015
3584.00,0.0016
3571.00,0.0015
3558.00,0.0015
3545.00,0.0016
3532.00,0.0016
3519.00,0.0016
3506.00,0.0017
3493.00,0.0017
3480.00,0.0017
3467.00,0.0017
3454.00,0.0017
3441.00,0.0018
3428.00,0.0018
3415.00,0.0018
3402.00,0.0019
3389.00,0.0019
3376.00,0.0018
3363.00,0.0018
3350.00,0.0019
3337.00,0.0018
3324.00,0.0018
3311.00,0.0018
3298.00,0.0018
3285.00,0.0017
3272.00,0.0018
3259.00,0.0017
3246.00,0.0017
3233.00,0.0018
3220.00,0.0017
3207.00,0.0017
3194.00,0.0018
3181.00,0.0017
3168.00,0.0017
3155.00,0.0017
3142.00,0.0016
3129.00,0.0017
3116.00,0.0021
3103.00,0.0034
3090.00,0.0043
3077.00,0.0060
3064.00,0.0084
3051.00,0.0065
3038.00,0.0068
3025.00,0.0184
3012.00,0.0054
2999.00,0.0043
2986.00,0.0015
2973.00,0.0015
2960.00,0.0036
2947.00,0.0073
2934.00,0.0154
2921.00,0.0218
2908.00,0.0166
2895.00,0.0096
2882.00,0.0067
2869.00,0.0056
2856.00,0.0085
2843.00,0.0083
2830.00,0.0033
2817.00,0.0025
2804.00,0.0024
2791.00,0.0022
2778.00,0.0021
2765.00,0.0020
2752.00,0.0019
2739.00,0.0019
2726.00,0.0020
2713.00,0.0019
2700.00,0.0019
2687.00,0.0019
2674.00,0.0019
2661.00,0.0021
2648.00,0.0022
2635.00,0.0023
2622.00,0.0021
2609.00,0.0021
2596.00,0.0020
2583.00,0.0019
2570.00,0.0018
2557.00,0.0017
2544.00,0.0017
2531.00,0.0016
2518.00,0.0017
2505.00,0.0016
2492.00,0.0017
2479.00,0.0015
2466.00,0.0015
2453.00,0.0016
2440.00,0.0015
2427.00,0.0014
2414.00,0.0013
2401.00,0.0013
2388.00,0.0012
2375.00,0.0012
2362.00,0.0014
2349.00,0.0015
2336.00,0.0017
2323.00,0.0025
2310.00,0.0020
2297.00,0.0020
2284.00,0.0022
2271.00,0.0017
2258.00,0.0018
2245.00,0.0016
2232.00,0.0017
2219.00,0.0018
2206.00,0.0015
2193.00,0.0016
2180.00,0.0013
2167.00,0.0022
2154.00,-0.0005
2141.00,0.0002
2128.00,0.0004
2115.00,0.0013
2102.00,0.0010
2089.00,0.0012
2076.00,0.0013
2063.00,0.0011
2050.00,0.0017
2037.00,0.0011
2024.00,0.0005
2011.00,0.0009
1998.00,0.0010
1985.00,0.0017
1972.00,0.0006
1959.00,0.0016
1946.00,0.0031
1933.00,0.0022
1920.00,0.0013
1907.00,0.0012
1894.00,0.0019
1881.00,0.0027
1868.00,0.0030
1855.00,0.0018
1842.00,0.0014
1829.00,0.0017
1816.00,0.0024
1803.00,0.0035
1790.00,0.0024
1777.00,0.0021
1764.00,0.0023
1751.00,0.0038
1738.00,0.0048
1725.00,0.0040
1712.00,0.0033
1699.00,0.0031
1686.00,0.0030
1673.00,0.0034
1660.00,0.0032
1647.00,0.0028
1634.00,0.0027
1621.00,0.0030
1608.00,0.0080
1595.00,0.0105
1582.00,0.0082
1569.00,0.0028
1556.00,0.0029
1543.00,0.0037
1530.00,0.0031
1517.00,0.0030
1504.00,0.0049
1491.00,0.0454
1478.00,0.0061
1465.00,0.0062
1452.00,0.0505
1439.00,0.0187
1426.00,0.0061
1413.00,0.0044
1400.00,0.0040
1387.00,0.0064
1374.00,0.0104
1361.00,0.0101
1348.00,0.0094
1335.00,0.0083
1322.00,0.0089
1309.00,0.0093
1296.00,0.0077
1283.00,0.0071
1270.00,0.0057
1257.00,0.0052
1244.00,0.0057
1231.00,0.0057
1218.00,0.0059
1205.00,0.0073
1192.00,0.0088
1179.00,0.0108
1166.00,0.0066
1153.00,0.0109
1140.00,0.0049
1127.00,0.0047
1114.00,0.0067
1101.00,0.0068
1088.00,0.0081
1075.00,0.0129
1062.00,0.0130
1049.00,0.0092
1036.00,0.0126
1023.00,0.0209
1010.00,0.0116
997.00,0.0094
984.00,0.0104
971.00,0.0099
958.00,0.0091
945.00,0.0091
932.00,0.0070
919.00,0.0083
906.00,0.0196
893.00,0.0074
880.00,0.0056
867.00,0.0050
854.00,0.0055
841.00,0.0102
828.00,0.0048
815.00,0.0048
802.00,0.0054
789.00,0.0101
776.00,0.0248
763.00,0.0651
750.00,0.0852
737.00,0.0359
724.00,0.0103
711.00,0.0225
698.00,0.2323
685.00,0.0856
672.00,0.0375
659.00,0.0221
646.00,0.0138
633.00,0.0155
620.00,0.0187
607.00,0.0142
594.00,0.0158
581.00,0.0206
568.00,0.0347
555.00,0.0504
542.00,0.0801
529.00,0.0576
516.00,0.0286
503.00,0.0189
490.00,0.0150
477.00,0.0130
464.00,0.0114
451.00,0.0106
438.00,0.0088
425.00,0.0078
412.00,0.0089
400.00,0.0097