File: FTIR/Mary/2025_06_11_Standard_Polystyrene_postscan2.csv
Created as New Dataset,Sample 669 By YargerLab Date Wednesday, June 11 2025
cm-1,A
4000.00,0.0011
3987.00,0.0012
3974.00,0.0010
3961.00,0.0010
3948.00,0.0011
3935.00,0.0010
3922.00,0.0011
3909.00,0.0012
3896.00,0.0010
3883.00,0.0009
3870.00,0.0011
3857.00,0.0011
3844.00,0.0010
3831.00,0.0013
3818.00,0.0008
3805.00,0.0010
3792.00,0.0010
3779.00,0.0011
3766.00,0.0011
3753.00,0.0011
3740.00,0.0010
3727.00,0.0012
3714.00,0.0010
3701.00,0.0009
3688.00,0.0008
3675.00,0.0010
3662.00,0.0009
3649.00,0.0006
3636.00,0.0008
3623.00,0.0010
3610.00,0.0004
3597.00,0.0006
3584.00,0.0006
3571.00,0.0007
3558.00,0.0008
3545.00,0.0007
3532.00,0.0009
3519.00,0.0011
3506.00,0.0006
3493.00,0.0006
3480.00,0.0007
3467.00,0.0006
3454.00,0.0007
3441.00,0.0008
3428.00,0.0006
3415.00,0.0005
3402.00,0.0006
3389.00,0.0006
3376.00,0.0006
3363.00,0.0004
3350.00,0.0005
3337.00,-0.0002
3324.00,-0.0002
3311.00,-0.0001
3298.00,-0.0005
3285.00,-0.0004
3272.00,-0.0003
3259.00,-0.0003
3246.00,0.0000
3233.00,0.0003
3220.00,0.0004
3207.00,0.0005
3194.00,0.0006
3181.00,0.0006
3168.00,0.0009
3155.00,0.0009
3142.00,0.0008
3129.00,0.0009
3116.00,0.0010
3103.00,0.0019
3090.00,0.0026
3077.00,0.0033
3064.00,0.0045
3051.00,0.0036
3038.00,0.0039
3025.00,0.0103
3012.00,0.0033
2999.00,0.0031
2986.00,0.0018
2973.00,0.0018
2960.00,0.0023
2947.00,0.0040
2934.00,0.0080
2921.00,0.0108
2908.00,0.0083
2895.00,0.0052
2882.00,0.0038
2869.00,0.0029
2856.00,0.0041
2843.00,0.0043
2830.00,0.0020
2817.00,0.0014
2804.00,0.0013
2791.00,0.0013
2778.00,0.0012
2765.00,0.0011
2752.00,0.0010
2739.00,0.0011
2726.00,0.0011
2713.00,0.0011
2700.00,0.0012
2687.00,0.0011
2674.00,0.0011
2661.00,0.0014
2648.00,0.0015
2635.00,0.0013
2622.00,0.0013
2609.00,0.0013
2596.00,0.0011
2583.00,0.0012
2570.00,0.0011
2557.00,0.0009
2544.00,0.0008
2531.00,0.0008
2518.00,0.0010
2505.00,0.0004
2492.00,0.0008
2479.00,0.0009
2466.00,0.0006
2453.00,0.0010
2440.00,0.0007
2427.00,0.0008
2414.00,0.0005
2401.00,0.0006
2388.00,0.0005
2375.00,0.0004
2362.00,0.0004
2349.00,0.0003
2336.00,0.0008
2323.00,0.0014
2310.00,0.0010
2297.00,0.0011
2284.00,0.0013
2271.00,0.0012
2258.00,0.0006
2245.00,0.0006
2232.00,0.0006
2219.00,0.0004
2206.00,0.0008
2193.00,0.0008
2180.00,-0.0004
2167.00,0.0023
2154.00,-0.0016
2141.00,0.0003
2128.00,-0.0004
2115.00,0.0002
2102.00,0.0004
2089.00,0.0002
2076.00,0.0005
2063.00,0.0006
2050.00,0.0016
2037.00,0.0006
2024.00,-0.0000
2011.00,-0.0003
1998.00,0.0007
1985.00,0.0006
1972.00,0.0001
1959.00,0.0003
1946.00,0.0012
1933.00,0.0008
1920.00,0.0008
1907.00,0.0001
1894.00,0.0007
1881.00,0.0012
1868.00,0.0014
1855.00,0.0008
1842.00,0.0005
1829.00,0.0008
1816.00,0.0009
1803.00,0.0016
1790.00,0.0012
1777.00,0.0009
1764.00,0.0008
1751.00,0.0013
1738.00,0.0016
1725.00,0.0012
1712.00,0.0010
1699.00,0.0005
1686.00,0.0007
1673.00,0.0006
1660.00,0.0001
1647.00,-0.0003
1634.00,-0.0002
1621.00,0.0007
1608.00,0.0042
1595.00,0.0056
1582.00,0.0044
1569.00,0.0013
1556.00,0.0010
1543.00,0.0012
1530.00,0.0004
1517.00,-0.0000
1504.00,0.0012
1491.00,0.0222
1478.00,0.0029
1465.00,0.0030
1452.00,0.0242
1439.00,0.0090
1426.00,0.0026
1413.00,0.0019
1400.00,0.0023
1387.00,0.0037
1374.00,0.0053
1361.00,0.0050
1348.00,0.0047
1335.00,0.0042
1322.00,0.0044
1309.00,0.0046
1296.00,0.0037
1283.00,0.0034
1270.00,0.0025
1257.00,0.0017
1244.00,0.0024
1231.00,0.0020
1218.00,0.0025
1205.00,0.0034
1192.00,0.0045
1179.00,0.0058
1166.00,0.0029
1153.00,0.0056
1140.00,0.0026
1127.00,0.0022
1114.00,0.0029
1101.00,0.0029
1088.00,0.0042
1075.00,0.0065
1062.00,0.0058
1049.00,0.0035
1036.00,0.0050
1023.00,0.0096
1010.00,0.0043
997.00,0.0034
984.00,0.0042
971.00,0.0050
958.00,0.0050
945.00,0.0051
932.00,0.0036
919.00,0.0045
906.00,0.0106
893.00,0.0042
880.00,0.0030
867.00,0.0026
854.00,0.0028
841.00,0.0052
828.00,0.0023
815.00,0.0024
802.00,0.0028
789.00,0.0051
776.00,0.0127
763.00,0.0322
750.00,0.0418
737.00,0.0182
724.00,0.0049
711.00,0.0107
698.00,0.1036
685.00,0.0445
672.00,0.0196
659.00,0.0112
646.00,0.0070
633.00,0.0074
620.00,0.0087
607.00,0.0065
594.00,0.0075
581.00,0.0098
568.00,0.0174
555.00,0.0257
542.00,0.0408
529.00,0.0309
516.00,0.0147
503.00,0.0239
490.00,0.0083
477.00,0.0080
464.00,0.0067
451.00,0.0068
438.00,0.0056
425.00,0.0047
412.00,0.0028
400.00,-0.0017