File: FTIR/Mary/2025_06_10_Standard_Polystyrene_1.csv
Created as New Dataset,Sample 641 By YargerLab Date Tuesday, June 10 2025
cm-1,A
4000.00,0.0018
3987.00,0.0017
3974.00,0.0016
3961.00,0.0016
3948.00,0.0014
3935.00,0.0014
3922.00,0.0014
3909.00,0.0015
3896.00,0.0011
3883.00,0.0009
3870.00,0.0008
3857.00,0.0016
3844.00,0.0008
3831.00,0.0009
3818.00,0.0008
3805.00,0.0011
3792.00,0.0014
3779.00,0.0012
3766.00,0.0010
3753.00,0.0004
3740.00,-0.0003
3727.00,0.0003
3714.00,0.0008
3701.00,0.0010
3688.00,0.0006
3675.00,0.0003
3662.00,0.0009
3649.00,-0.0003
3636.00,0.0007
3623.00,0.0004
3610.00,-0.0000
3597.00,0.0005
3584.00,0.0005
3571.00,0.0007
3558.00,0.0011
3545.00,0.0009
3532.00,0.0013
3519.00,0.0015
3506.00,0.0015
3493.00,0.0018
3480.00,0.0019
3467.00,0.0021
3454.00,0.0023
3441.00,0.0023
3428.00,0.0025
3415.00,0.0025
3402.00,0.0027
3389.00,0.0027
3376.00,0.0029
3363.00,0.0029
3350.00,0.0031
3337.00,0.0032
3324.00,0.0032
3311.00,0.0031
3298.00,0.0032
3285.00,0.0032
3272.00,0.0030
3259.00,0.0030
3246.00,0.0028
3233.00,0.0026
3220.00,0.0025
3207.00,0.0024
3194.00,0.0023
3181.00,0.0023
3168.00,0.0023
3155.00,0.0021
3142.00,0.0021
3129.00,0.0021
3116.00,0.0021
3103.00,0.0033
3090.00,0.0041
3077.00,0.0055
3064.00,0.0074
3051.00,0.0057
3038.00,0.0062
3025.00,0.0155
3012.00,0.0048
2999.00,0.0040
2986.00,0.0018
2973.00,0.0020
2960.00,0.0044
2947.00,0.0077
2934.00,0.0153
2921.00,0.0210
2908.00,0.0155
2895.00,0.0095
2882.00,0.0068
2869.00,0.0061
2856.00,0.0094
2843.00,0.0081
2830.00,0.0034
2817.00,0.0028
2804.00,0.0026
2791.00,0.0024
2778.00,0.0023
2765.00,0.0022
2752.00,0.0022
2739.00,0.0022
2726.00,0.0022
2713.00,0.0022
2700.00,0.0022
2687.00,0.0021
2674.00,0.0021
2661.00,0.0023
2648.00,0.0025
2635.00,0.0024
2622.00,0.0023
2609.00,0.0022
2596.00,0.0021
2583.00,0.0020
2570.00,0.0020
2557.00,0.0018
2544.00,0.0017
2531.00,0.0016
2518.00,0.0016
2505.00,0.0017
2492.00,0.0016
2479.00,0.0015
2466.00,0.0014
2453.00,0.0015
2440.00,0.0015
2427.00,0.0013
2414.00,0.0014
2401.00,0.0012
2388.00,0.0012
2375.00,0.0012
2362.00,0.0014
2349.00,0.0016
2336.00,0.0019
2323.00,0.0025
2310.00,0.0018
2297.00,0.0019
2284.00,0.0021
2271.00,0.0016
2258.00,0.0016
2245.00,0.0012
2232.00,0.0011
2219.00,0.0010
2206.00,0.0013
2193.00,0.0010
2180.00,0.0009
2167.00,0.0020
2154.00,-0.0010
2141.00,-0.0003
2128.00,-0.0001
2115.00,0.0008
2102.00,0.0009
2089.00,0.0009
2076.00,0.0009
2063.00,0.0009
2050.00,0.0013
2037.00,0.0002
2024.00,0.0002
2011.00,0.0001
1998.00,0.0001
1985.00,0.0011
1972.00,0.0001
1959.00,0.0006
1946.00,0.0021
1933.00,0.0013
1920.00,0.0008
1907.00,0.0009
1894.00,0.0012
1881.00,0.0018
1868.00,0.0024
1855.00,0.0012
1842.00,0.0008
1829.00,0.0015
1816.00,0.0019
1803.00,0.0031
1790.00,0.0020
1777.00,0.0019
1764.00,0.0029
1751.00,0.0047
1738.00,0.0063
1725.00,0.0048
1712.00,0.0035
1699.00,0.0025
1686.00,0.0023
1673.00,0.0030
1660.00,0.0032
1647.00,0.0029
1634.00,0.0030
1621.00,0.0033
1608.00,0.0069
1595.00,0.0087
1582.00,0.0069
1569.00,0.0029
1556.00,0.0027
1543.00,0.0034
1530.00,0.0020
1517.00,0.0024
1504.00,0.0038
1491.00,0.0321
1478.00,0.0050
1465.00,0.0060
1452.00,0.0367
1439.00,0.0148
1426.00,0.0060
1413.00,0.0049
1400.00,0.0043
1387.00,0.0066
1374.00,0.0098
1361.00,0.0093
1348.00,0.0084
1335.00,0.0082
1322.00,0.0088
1309.00,0.0089
1296.00,0.0076
1283.00,0.0071
1270.00,0.0064
1257.00,0.0061
1244.00,0.0066
1231.00,0.0067
1218.00,0.0057
1205.00,0.0069
1192.00,0.0080
1179.00,0.0098
1166.00,0.0079
1153.00,0.0111
1140.00,0.0061
1127.00,0.0065
1114.00,0.0093
1101.00,0.0096
1088.00,0.0101
1075.00,0.0138
1062.00,0.0151
1049.00,0.0126
1036.00,0.0153
1023.00,0.0213
1010.00,0.0140
997.00,0.0122
984.00,0.0127
971.00,0.0110
958.00,0.0096
945.00,0.0088
932.00,0.0072
919.00,0.0081
906.00,0.0158
893.00,0.0073
880.00,0.0057
867.00,0.0051
854.00,0.0052
841.00,0.0086
828.00,0.0048
815.00,0.0049
802.00,0.0056
789.00,0.0086
776.00,0.0185
763.00,0.0443
750.00,0.0558
737.00,0.0257
724.00,0.0092
711.00,0.0177
698.00,0.1365
685.00,0.0565
672.00,0.0276
659.00,0.0182
646.00,0.0125
633.00,0.0136
620.00,0.0162
607.00,0.0137
594.00,0.0148
581.00,0.0176
568.00,0.0270
555.00,0.0378
542.00,0.0557
529.00,0.0417
516.00,0.0233
503.00,0.0162
490.00,0.0135
477.00,0.0121
464.00,0.0119
451.00,0.0114
438.00,0.0099
425.00,0.0101
412.00,0.0107
400.00,0.0004