File: FTIR/Mary/2025_06_11_Standard_Polystyrene_prescan_2.csv
Created as New Dataset,Sample 656 By YargerLab Date Wednesday, June 11 2025
cm-1,A
4000.00,0.0033
3987.00,0.0033
3974.00,0.0031
3961.00,0.0032
3948.00,0.0035
3935.00,0.0035
3922.00,0.0035
3909.00,0.0032
3896.00,0.0038
3883.00,0.0038
3870.00,0.0041
3857.00,0.0033
3844.00,0.0039
3831.00,0.0039
3818.00,0.0040
3805.00,0.0039
3792.00,0.0035
3779.00,0.0035
3766.00,0.0038
3753.00,0.0043
3740.00,0.0049
3727.00,0.0042
3714.00,0.0039
3701.00,0.0033
3688.00,0.0038
3675.00,0.0043
3662.00,0.0034
3649.00,0.0048
3636.00,0.0036
3623.00,0.0042
3610.00,0.0047
3597.00,0.0042
3584.00,0.0045
3571.00,0.0042
3558.00,0.0041
3545.00,0.0046
3532.00,0.0043
3519.00,0.0046
3506.00,0.0047
3493.00,0.0047
3480.00,0.0049
3467.00,0.0049
3454.00,0.0052
3441.00,0.0052
3428.00,0.0053
3415.00,0.0055
3402.00,0.0057
3389.00,0.0059
3376.00,0.0061
3363.00,0.0065
3350.00,0.0068
3337.00,0.0073
3324.00,0.0076
3311.00,0.0081
3298.00,0.0085
3285.00,0.0085
3272.00,0.0084
3259.00,0.0077
3246.00,0.0073
3233.00,0.0070
3220.00,0.0065
3207.00,0.0062
3194.00,0.0059
3181.00,0.0057
3168.00,0.0054
3155.00,0.0052
3142.00,0.0052
3129.00,0.0050
3116.00,0.0052
3103.00,0.0062
3090.00,0.0071
3077.00,0.0085
3064.00,0.0104
3051.00,0.0086
3038.00,0.0088
3025.00,0.0180
3012.00,0.0075
2999.00,0.0071
2986.00,0.0053
2973.00,0.0055
2960.00,0.0063
2947.00,0.0089
2934.00,0.0149
2921.00,0.0205
2908.00,0.0164
2895.00,0.0110
2882.00,0.0085
2869.00,0.0073
2856.00,0.0092
2843.00,0.0093
2830.00,0.0052
2817.00,0.0047
2804.00,0.0044
2791.00,0.0042
2778.00,0.0041
2765.00,0.0038
2752.00,0.0038
2739.00,0.0039
2726.00,0.0038
2713.00,0.0037
2700.00,0.0037
2687.00,0.0036
2674.00,0.0036
2661.00,0.0038
2648.00,0.0038
2635.00,0.0038
2622.00,0.0037
2609.00,0.0036
2596.00,0.0034
2583.00,0.0033
2570.00,0.0033
2557.00,0.0031
2544.00,0.0031
2531.00,0.0031
2518.00,0.0030
2505.00,0.0030
2492.00,0.0030
2479.00,0.0029
2466.00,0.0029
2453.00,0.0028
2440.00,0.0028
2427.00,0.0026
2414.00,0.0026
2401.00,0.0025
2388.00,0.0025
2375.00,0.0025
2362.00,0.0029
2349.00,0.0028
2336.00,0.0030
2323.00,0.0034
2310.00,0.0033
2297.00,0.0031
2284.00,0.0031
2271.00,0.0027
2258.00,0.0026
2245.00,0.0025
2232.00,0.0026
2219.00,0.0026
2206.00,0.0027
2193.00,0.0023
2180.00,0.0021
2167.00,0.0030
2154.00,0.0008
2141.00,0.0013
2128.00,0.0016
2115.00,0.0022
2102.00,0.0020
2089.00,0.0020
2076.00,0.0026
2063.00,0.0019
2050.00,0.0025
2037.00,0.0018
2024.00,0.0013
2011.00,-0.0009
1998.00,0.0015
1985.00,0.0025
1972.00,0.0018
1959.00,0.0022
1946.00,0.0035
1933.00,0.0026
1920.00,0.0022
1907.00,0.0020
1894.00,0.0025
1881.00,0.0030
1868.00,0.0033
1855.00,0.0025
1842.00,0.0021
1829.00,0.0021
1816.00,0.0027
1803.00,0.0036
1790.00,0.0030
1777.00,0.0026
1764.00,0.0023
1751.00,0.0029
1738.00,0.0020
1725.00,0.0021
1712.00,0.0028
1699.00,0.0058
1686.00,0.0082
1673.00,0.0107
1660.00,0.0128
1647.00,0.0139
1634.00,0.0139
1621.00,0.0119
1608.00,0.0126
1595.00,0.0127
1582.00,0.0112
1569.00,0.0083
1556.00,0.0101
1543.00,0.0126
1530.00,0.0128
1517.00,0.0134
1504.00,0.0129
1491.00,0.0397
1478.00,0.0096
1465.00,0.0093
1452.00,0.0413
1439.00,0.0185
1426.00,0.0089
1413.00,0.0082
1400.00,0.0082
1387.00,0.0095
1374.00,0.0122
1361.00,0.0114
1348.00,0.0105
1335.00,0.0099
1322.00,0.0098
1309.00,0.0100
1296.00,0.0085
1283.00,0.0080
1270.00,0.0073
1257.00,0.0070
1244.00,0.0072
1231.00,0.0074
1218.00,0.0075
1205.00,0.0080
1192.00,0.0086
1179.00,0.0102
1166.00,0.0070
1153.00,0.0103
1140.00,0.0054
1127.00,0.0050
1114.00,0.0063
1101.00,0.0065
1088.00,0.0077
1075.00,0.0118
1062.00,0.0117
1049.00,0.0087
1036.00,0.0110
1023.00,0.0175
1010.00,0.0107
997.00,0.0087
984.00,0.0095
971.00,0.0092
958.00,0.0088
945.00,0.0087
932.00,0.0070
919.00,0.0077
906.00,0.0161
893.00,0.0067
880.00,0.0053
867.00,0.0048
854.00,0.0052
841.00,0.0087
828.00,0.0052
815.00,0.0051
802.00,0.0056
789.00,0.0089
776.00,0.0196
763.00,0.0477
750.00,0.0623
737.00,0.0288
724.00,0.0100
711.00,0.0189
698.00,0.1562
685.00,0.0675
672.00,0.0322
659.00,0.0211
646.00,0.0146
633.00,0.0156
620.00,0.0179
607.00,0.0146
594.00,0.0158
581.00,0.0188
568.00,0.0296
555.00,0.0406
542.00,0.0627
529.00,0.0474
516.00,0.0262
503.00,0.0195
490.00,0.0146
477.00,0.0126
464.00,0.0126
451.00,0.0101
438.00,0.0091
425.00,0.0078
412.00,0.0092
400.00,0.0039