File: FTIR/Mary/2025_12_02_Polystyrene_Standard_Scan1.csv
Created as New Dataset,Sample 384 By YargerLab Date Tuesday, December 02 2025
cm-1,A
4000.00,0.0005
3987.00,0.0006
3974.00,0.0005
3961.00,0.0005
3948.00,0.0005
3935.00,0.0005
3922.00,0.0005
3909.00,0.0005
3896.00,0.0004
3883.00,0.0004
3870.00,0.0005
3857.00,0.0006
3844.00,0.0006
3831.00,0.0005
3818.00,0.0005
3805.00,0.0006
3792.00,0.0005
3779.00,0.0005
3766.00,0.0005
3753.00,0.0006
3740.00,0.0005
3727.00,0.0005
3714.00,0.0005
3701.00,0.0004
3688.00,0.0004
3675.00,0.0006
3662.00,0.0005
3649.00,0.0005
3636.00,0.0005
3623.00,0.0006
3610.00,0.0005
3597.00,0.0007
3584.00,0.0007
3571.00,0.0009
3558.00,0.0009
3545.00,0.0010
3532.00,0.0011
3519.00,0.0012
3506.00,0.0013
3493.00,0.0014
3480.00,0.0016
3467.00,0.0016
3454.00,0.0017
3441.00,0.0017
3428.00,0.0018
3415.00,0.0018
3402.00,0.0019
3389.00,0.0018
3376.00,0.0019
3363.00,0.0019
3350.00,0.0020
3337.00,0.0020
3324.00,0.0021
3311.00,0.0021
3298.00,0.0021
3285.00,0.0021
3272.00,0.0020
3259.00,0.0020
3246.00,0.0020
3233.00,0.0019
3220.00,0.0019
3207.00,0.0020
3194.00,0.0018
3181.00,0.0018
3168.00,0.0018
3155.00,0.0018
3142.00,0.0017
3129.00,0.0017
3116.00,0.0019
3103.00,0.0028
3090.00,0.0033
3077.00,0.0046
3064.00,0.0059
3051.00,0.0048
3038.00,0.0049
3025.00,0.0123
3012.00,0.0043
2999.00,0.0041
2986.00,0.0027
2973.00,0.0033
2960.00,0.0046
2947.00,0.0069
2934.00,0.0126
2921.00,0.0173
2908.00,0.0130
2895.00,0.0080
2882.00,0.0058
2869.00,0.0050
2856.00,0.0075
2843.00,0.0065
2830.00,0.0025
2817.00,0.0019
2804.00,0.0018
2791.00,0.0016
2778.00,0.0015
2765.00,0.0014
2752.00,0.0013
2739.00,0.0013
2726.00,0.0013
2713.00,0.0013
2700.00,0.0013
2687.00,0.0012
2674.00,0.0012
2661.00,0.0015
2648.00,0.0016
2635.00,0.0016
2622.00,0.0014
2609.00,0.0013
2596.00,0.0012
2583.00,0.0012
2570.00,0.0011
2557.00,0.0010
2544.00,0.0010
2531.00,0.0008
2518.00,0.0008
2505.00,0.0008
2492.00,0.0007
2479.00,0.0007
2466.00,0.0006
2453.00,0.0008
2440.00,0.0007
2427.00,0.0005
2414.00,0.0005
2401.00,0.0004
2388.00,0.0003
2375.00,0.0003
2362.00,0.0005
2349.00,0.0006
2336.00,0.0009
2323.00,0.0015
2310.00,0.0011
2297.00,0.0010
2284.00,0.0013
2271.00,0.0009
2258.00,0.0007
2245.00,0.0007
2232.00,0.0005
2219.00,0.0004
2206.00,0.0005
2193.00,0.0008
2180.00,-0.0000
2167.00,0.0015
2154.00,-0.0013
2141.00,-0.0009
2128.00,-0.0007
2115.00,0.0002
2102.00,0.0002
2089.00,0.0003
2076.00,0.0004
2063.00,0.0005
2050.00,0.0010
2037.00,0.0007
2024.00,-0.0003
2011.00,-0.0023
1998.00,-0.0002
1985.00,0.0007
1972.00,-0.0002
1959.00,0.0002
1946.00,0.0013
1933.00,0.0007
1920.00,0.0002
1907.00,0.0001
1894.00,0.0005
1881.00,0.0011
1868.00,0.0014
1855.00,0.0007
1842.00,0.0004
1829.00,0.0006
1816.00,0.0010
1803.00,0.0019
1790.00,0.0014
1777.00,0.0015
1764.00,0.0020
1751.00,0.0043
1738.00,0.0057
1725.00,0.0045
1712.00,0.0038
1699.00,0.0037
1686.00,0.0047
1673.00,0.0053
1660.00,0.0054
1647.00,0.0049
1634.00,0.0042
1621.00,0.0041
1608.00,0.0064
1595.00,0.0079
1582.00,0.0063
1569.00,0.0029
1556.00,0.0029
1543.00,0.0037
1530.00,0.0032
1517.00,0.0031
1504.00,0.0038
1491.00,0.0271
1478.00,0.0048
1465.00,0.0056
1452.00,0.0292
1439.00,0.0125
1426.00,0.0053
1413.00,0.0048
1400.00,0.0049
1387.00,0.0064
1374.00,0.0085
1361.00,0.0081
1348.00,0.0073
1335.00,0.0068
1322.00,0.0073
1309.00,0.0072
1296.00,0.0064
1283.00,0.0060
1270.00,0.0054
1257.00,0.0051
1244.00,0.0054
1231.00,0.0055
1218.00,0.0055
1205.00,0.0062
1192.00,0.0072
1179.00,0.0089
1166.00,0.0067
1153.00,0.0089
1140.00,0.0052
1127.00,0.0048
1114.00,0.0059
1101.00,0.0061
1088.00,0.0070
1075.00,0.0095
1062.00,0.0095
1049.00,0.0070
1036.00,0.0084
1023.00,0.0130
1010.00,0.0077
997.00,0.0064
984.00,0.0069
971.00,0.0068
958.00,0.0065
945.00,0.0063
932.00,0.0050
919.00,0.0055
906.00,0.0114
893.00,0.0049
880.00,0.0038
867.00,0.0034
854.00,0.0038
841.00,0.0062
828.00,0.0036
815.00,0.0033
802.00,0.0036
789.00,0.0059
776.00,0.0136
763.00,0.0333
750.00,0.0424
737.00,0.0191
724.00,0.0061
711.00,0.0121
698.00,0.0977
685.00,0.0415
672.00,0.0194
659.00,0.0119
646.00,0.0080
633.00,0.0085
620.00,0.0101
607.00,0.0080
594.00,0.0090
581.00,0.0112
568.00,0.0179
555.00,0.0249
542.00,0.0384
529.00,0.0289
516.00,0.0153
503.00,0.0107
490.00,0.0085
477.00,0.0076
464.00,0.0073
451.00,0.0066
438.00,0.0068
425.00,0.0053
412.00,0.0069
400.00,0.0044