File: FTIR/Mary/2025_06_11_Standard_Polystyrene_postscan3.csv
Created as New Dataset,Sample 670 By YargerLab Date Wednesday, June 11 2025
cm-1,A
4000.00,0.0017
3987.00,0.0019
3974.00,0.0017
3961.00,0.0016
3948.00,0.0016
3935.00,0.0016
3922.00,0.0016
3909.00,0.0018
3896.00,0.0016
3883.00,0.0013
3870.00,0.0016
3857.00,0.0016
3844.00,0.0016
3831.00,0.0019
3818.00,0.0014
3805.00,0.0015
3792.00,0.0016
3779.00,0.0017
3766.00,0.0017
3753.00,0.0017
3740.00,0.0015
3727.00,0.0018
3714.00,0.0016
3701.00,0.0016
3688.00,0.0014
3675.00,0.0016
3662.00,0.0015
3649.00,0.0012
3636.00,0.0015
3623.00,0.0018
3610.00,0.0011
3597.00,0.0015
3584.00,0.0014
3571.00,0.0016
3558.00,0.0017
3545.00,0.0017
3532.00,0.0020
3519.00,0.0024
3506.00,0.0018
3493.00,0.0018
3480.00,0.0020
3467.00,0.0019
3454.00,0.0022
3441.00,0.0023
3428.00,0.0023
3415.00,0.0023
3402.00,0.0025
3389.00,0.0026
3376.00,0.0028
3363.00,0.0027
3350.00,0.0028
3337.00,0.0023
3324.00,0.0023
3311.00,0.0025
3298.00,0.0021
3285.00,0.0021
3272.00,0.0023
3259.00,0.0021
3246.00,0.0024
3233.00,0.0025
3220.00,0.0024
3207.00,0.0025
3194.00,0.0027
3181.00,0.0026
3168.00,0.0027
3155.00,0.0027
3142.00,0.0025
3129.00,0.0026
3116.00,0.0027
3103.00,0.0038
3090.00,0.0047
3077.00,0.0057
3064.00,0.0076
3051.00,0.0061
3038.00,0.0065
3025.00,0.0153
3012.00,0.0056
2999.00,0.0053
2986.00,0.0035
2973.00,0.0036
2960.00,0.0045
2947.00,0.0068
2934.00,0.0130
2921.00,0.0173
2908.00,0.0134
2895.00,0.0087
2882.00,0.0066
2869.00,0.0054
2856.00,0.0074
2843.00,0.0073
2830.00,0.0037
2817.00,0.0030
2804.00,0.0029
2791.00,0.0028
2778.00,0.0026
2765.00,0.0027
2752.00,0.0025
2739.00,0.0025
2726.00,0.0024
2713.00,0.0024
2700.00,0.0024
2687.00,0.0024
2674.00,0.0024
2661.00,0.0026
2648.00,0.0027
2635.00,0.0025
2622.00,0.0024
2609.00,0.0024
2596.00,0.0023
2583.00,0.0024
2570.00,0.0021
2557.00,0.0020
2544.00,0.0019
2531.00,0.0019
2518.00,0.0021
2505.00,0.0016
2492.00,0.0020
2479.00,0.0019
2466.00,0.0018
2453.00,0.0019
2440.00,0.0018
2427.00,0.0018
2414.00,0.0015
2401.00,0.0014
2388.00,0.0014
2375.00,0.0014
2362.00,0.0013
2349.00,0.0014
2336.00,0.0017
2323.00,0.0023
2310.00,0.0020
2297.00,0.0022
2284.00,0.0023
2271.00,0.0020
2258.00,0.0015
2245.00,0.0014
2232.00,0.0015
2219.00,0.0011
2206.00,0.0013
2193.00,0.0014
2180.00,0.0000
2167.00,0.0030
2154.00,-0.0009
2141.00,0.0009
2128.00,0.0003
2115.00,0.0011
2102.00,0.0013
2089.00,0.0010
2076.00,0.0013
2063.00,0.0016
2050.00,0.0022
2037.00,0.0012
2024.00,0.0004
2011.00,0.0009
1998.00,0.0012
1985.00,0.0015
1972.00,0.0009
1959.00,0.0010
1946.00,0.0024
1933.00,0.0018
1920.00,0.0016
1907.00,0.0010
1894.00,0.0016
1881.00,0.0023
1868.00,0.0026
1855.00,0.0018
1842.00,0.0014
1829.00,0.0018
1816.00,0.0021
1803.00,0.0029
1790.00,0.0022
1777.00,0.0019
1764.00,0.0019
1751.00,0.0027
1738.00,0.0032
1725.00,0.0028
1712.00,0.0026
1699.00,0.0026
1686.00,0.0035
1673.00,0.0042
1660.00,0.0046
1647.00,0.0046
1634.00,0.0045
1621.00,0.0051
1608.00,0.0090
1595.00,0.0101
1582.00,0.0085
1569.00,0.0044
1556.00,0.0045
1543.00,0.0055
1530.00,0.0048
1517.00,0.0041
1504.00,0.0053
1491.00,0.0327
1478.00,0.0064
1465.00,0.0070
1452.00,0.0364
1439.00,0.0150
1426.00,0.0064
1413.00,0.0056
1400.00,0.0058
1387.00,0.0076
1374.00,0.0099
1361.00,0.0095
1348.00,0.0086
1335.00,0.0081
1322.00,0.0085
1309.00,0.0086
1296.00,0.0071
1283.00,0.0068
1270.00,0.0059
1257.00,0.0051
1244.00,0.0058
1231.00,0.0056
1218.00,0.0057
1205.00,0.0067
1192.00,0.0080
1179.00,0.0097
1166.00,0.0065
1153.00,0.0099
1140.00,0.0057
1127.00,0.0055
1114.00,0.0070
1101.00,0.0073
1088.00,0.0087
1075.00,0.0123
1062.00,0.0118
1049.00,0.0090
1036.00,0.0112
1023.00,0.0170
1010.00,0.0101
997.00,0.0086
984.00,0.0093
971.00,0.0097
958.00,0.0092
945.00,0.0091
932.00,0.0071
919.00,0.0082
906.00,0.0162
893.00,0.0074
880.00,0.0060
867.00,0.0052
854.00,0.0054
841.00,0.0088
828.00,0.0048
815.00,0.0054
802.00,0.0058
789.00,0.0091
776.00,0.0187
763.00,0.0442
750.00,0.0567
737.00,0.0259
724.00,0.0092
711.00,0.0170
698.00,0.1371
685.00,0.0590
672.00,0.0285
659.00,0.0185
646.00,0.0128
633.00,0.0133
620.00,0.0155
607.00,0.0128
594.00,0.0143
581.00,0.0173
568.00,0.0268
555.00,0.0370
542.00,0.0570
529.00,0.0437
516.00,0.0235
503.00,0.0136
490.00,0.0149
477.00,0.0137
464.00,0.0128
451.00,0.0126
438.00,0.0118
425.00,0.0109
412.00,0.0108
400.00,0.0071