File: FTIR/Mary/2025_06_11_Standard_Polystyrene_prescan_3.csv
Created as New Dataset,Sample 657 By YargerLab Date Wednesday, June 11 2025
cm-1,A
4000.00,0.0037
3987.00,0.0036
3974.00,0.0035
3961.00,0.0037
3948.00,0.0038
3935.00,0.0039
3922.00,0.0038
3909.00,0.0036
3896.00,0.0042
3883.00,0.0042
3870.00,0.0043
3857.00,0.0036
3844.00,0.0043
3831.00,0.0043
3818.00,0.0043
3805.00,0.0042
3792.00,0.0037
3779.00,0.0038
3766.00,0.0042
3753.00,0.0046
3740.00,0.0051
3727.00,0.0046
3714.00,0.0041
3701.00,0.0036
3688.00,0.0041
3675.00,0.0045
3662.00,0.0037
3649.00,0.0051
3636.00,0.0039
3623.00,0.0045
3610.00,0.0049
3597.00,0.0045
3584.00,0.0047
3571.00,0.0045
3558.00,0.0044
3545.00,0.0049
3532.00,0.0046
3519.00,0.0050
3506.00,0.0049
3493.00,0.0050
3480.00,0.0051
3467.00,0.0053
3454.00,0.0055
3441.00,0.0054
3428.00,0.0056
3415.00,0.0058
3402.00,0.0060
3389.00,0.0062
3376.00,0.0064
3363.00,0.0067
3350.00,0.0071
3337.00,0.0075
3324.00,0.0078
3311.00,0.0083
3298.00,0.0087
3285.00,0.0088
3272.00,0.0086
3259.00,0.0080
3246.00,0.0076
3233.00,0.0072
3220.00,0.0068
3207.00,0.0066
3194.00,0.0063
3181.00,0.0060
3168.00,0.0057
3155.00,0.0055
3142.00,0.0054
3129.00,0.0053
3116.00,0.0055
3103.00,0.0066
3090.00,0.0074
3077.00,0.0087
3064.00,0.0107
3051.00,0.0090
3038.00,0.0092
3025.00,0.0181
3012.00,0.0078
2999.00,0.0074
2986.00,0.0055
2973.00,0.0058
2960.00,0.0065
2947.00,0.0091
2934.00,0.0151
2921.00,0.0204
2908.00,0.0164
2895.00,0.0111
2882.00,0.0087
2869.00,0.0075
2856.00,0.0094
2843.00,0.0095
2830.00,0.0054
2817.00,0.0049
2804.00,0.0046
2791.00,0.0045
2778.00,0.0043
2765.00,0.0041
2752.00,0.0042
2739.00,0.0041
2726.00,0.0040
2713.00,0.0039
2700.00,0.0039
2687.00,0.0039
2674.00,0.0038
2661.00,0.0041
2648.00,0.0041
2635.00,0.0040
2622.00,0.0039
2609.00,0.0038
2596.00,0.0037
2583.00,0.0035
2570.00,0.0035
2557.00,0.0034
2544.00,0.0032
2531.00,0.0032
2518.00,0.0032
2505.00,0.0033
2492.00,0.0033
2479.00,0.0031
2466.00,0.0032
2453.00,0.0031
2440.00,0.0030
2427.00,0.0028
2414.00,0.0028
2401.00,0.0028
2388.00,0.0027
2375.00,0.0027
2362.00,0.0028
2349.00,0.0029
2336.00,0.0030
2323.00,0.0036
2310.00,0.0033
2297.00,0.0032
2284.00,0.0033
2271.00,0.0029
2258.00,0.0028
2245.00,0.0027
2232.00,0.0028
2219.00,0.0028
2206.00,0.0029
2193.00,0.0028
2180.00,0.0020
2167.00,0.0029
2154.00,0.0009
2141.00,0.0016
2128.00,0.0016
2115.00,0.0024
2102.00,0.0021
2089.00,0.0022
2076.00,0.0029
2063.00,0.0020
2050.00,0.0026
2037.00,0.0019
2024.00,0.0016
2011.00,-0.0008
1998.00,0.0019
1985.00,0.0029
1972.00,0.0018
1959.00,0.0024
1946.00,0.0035
1933.00,0.0028
1920.00,0.0023
1907.00,0.0021
1894.00,0.0027
1881.00,0.0033
1868.00,0.0036
1855.00,0.0027
1842.00,0.0023
1829.00,0.0023
1816.00,0.0029
1803.00,0.0038
1790.00,0.0032
1777.00,0.0027
1764.00,0.0024
1751.00,0.0030
1738.00,0.0022
1725.00,0.0023
1712.00,0.0029
1699.00,0.0059
1686.00,0.0083
1673.00,0.0108
1660.00,0.0131
1647.00,0.0142
1634.00,0.0142
1621.00,0.0122
1608.00,0.0130
1595.00,0.0131
1582.00,0.0116
1569.00,0.0084
1556.00,0.0103
1543.00,0.0127
1530.00,0.0130
1517.00,0.0137
1504.00,0.0132
1491.00,0.0414
1478.00,0.0100
1465.00,0.0096
1452.00,0.0435
1439.00,0.0192
1426.00,0.0092
1413.00,0.0083
1400.00,0.0084
1387.00,0.0099
1374.00,0.0126
1361.00,0.0118
1348.00,0.0110
1335.00,0.0103
1322.00,0.0104
1309.00,0.0104
1296.00,0.0090
1283.00,0.0085
1270.00,0.0077
1257.00,0.0071
1244.00,0.0077
1231.00,0.0078
1218.00,0.0078
1205.00,0.0084
1192.00,0.0091
1179.00,0.0107
1166.00,0.0075
1153.00,0.0109
1140.00,0.0058
1127.00,0.0052
1114.00,0.0066
1101.00,0.0066
1088.00,0.0080
1075.00,0.0123
1062.00,0.0123
1049.00,0.0091
1036.00,0.0114
1023.00,0.0180
1010.00,0.0107
997.00,0.0089
984.00,0.0096
971.00,0.0092
958.00,0.0090
945.00,0.0088
932.00,0.0068
919.00,0.0077
906.00,0.0167
893.00,0.0069
880.00,0.0055
867.00,0.0047
854.00,0.0053
841.00,0.0093
828.00,0.0054
815.00,0.0053
802.00,0.0060
789.00,0.0093
776.00,0.0212
763.00,0.0525
750.00,0.0686
737.00,0.0313
724.00,0.0109
711.00,0.0205
698.00,0.1790
685.00,0.0749
672.00,0.0355
659.00,0.0228
646.00,0.0162
633.00,0.0171
620.00,0.0195
607.00,0.0161
594.00,0.0173
581.00,0.0205
568.00,0.0319
555.00,0.0444
542.00,0.0695
529.00,0.0527
516.00,0.0285
503.00,0.0203
490.00,0.0155
477.00,0.0136
464.00,0.0123
451.00,0.0110
438.00,0.0095
425.00,0.0089
412.00,0.0124
400.00,0.0177