File: FTIR/Mary/2025_12_02_Polystyrene_Standard_Scan3.csv
Created as New Dataset,Sample 386 By YargerLab Date Tuesday, December 02 2025
cm-1,A
4000.00,0.0009
3987.00,0.0010
3974.00,0.0009
3961.00,0.0010
3948.00,0.0009
3935.00,0.0009
3922.00,0.0009
3909.00,0.0008
3896.00,0.0008
3883.00,0.0009
3870.00,0.0008
3857.00,0.0009
3844.00,0.0009
3831.00,0.0008
3818.00,0.0009
3805.00,0.0009
3792.00,0.0009
3779.00,0.0009
3766.00,0.0009
3753.00,0.0010
3740.00,0.0008
3727.00,0.0008
3714.00,0.0009
3701.00,0.0008
3688.00,0.0008
3675.00,0.0009
3662.00,0.0008
3649.00,0.0009
3636.00,0.0009
3623.00,0.0009
3610.00,0.0010
3597.00,0.0011
3584.00,0.0012
3571.00,0.0013
3558.00,0.0013
3545.00,0.0014
3532.00,0.0016
3519.00,0.0017
3506.00,0.0019
3493.00,0.0019
3480.00,0.0021
3467.00,0.0021
3454.00,0.0022
3441.00,0.0023
3428.00,0.0023
3415.00,0.0023
3402.00,0.0024
3389.00,0.0024
3376.00,0.0025
3363.00,0.0025
3350.00,0.0026
3337.00,0.0026
3324.00,0.0027
3311.00,0.0027
3298.00,0.0027
3285.00,0.0027
3272.00,0.0026
3259.00,0.0026
3246.00,0.0025
3233.00,0.0024
3220.00,0.0024
3207.00,0.0024
3194.00,0.0023
3181.00,0.0022
3168.00,0.0022
3155.00,0.0021
3142.00,0.0021
3129.00,0.0021
3116.00,0.0023
3103.00,0.0032
3090.00,0.0038
3077.00,0.0052
3064.00,0.0067
3051.00,0.0054
3038.00,0.0056
3025.00,0.0139
3012.00,0.0048
2999.00,0.0045
2986.00,0.0030
2973.00,0.0037
2960.00,0.0050
2947.00,0.0076
2934.00,0.0136
2921.00,0.0189
2908.00,0.0142
2895.00,0.0087
2882.00,0.0064
2869.00,0.0055
2856.00,0.0080
2843.00,0.0071
2830.00,0.0029
2817.00,0.0022
2804.00,0.0020
2791.00,0.0018
2778.00,0.0017
2765.00,0.0017
2752.00,0.0016
2739.00,0.0016
2726.00,0.0016
2713.00,0.0015
2700.00,0.0016
2687.00,0.0015
2674.00,0.0015
2661.00,0.0018
2648.00,0.0019
2635.00,0.0019
2622.00,0.0017
2609.00,0.0016
2596.00,0.0016
2583.00,0.0014
2570.00,0.0014
2557.00,0.0013
2544.00,0.0012
2531.00,0.0012
2518.00,0.0012
2505.00,0.0012
2492.00,0.0010
2479.00,0.0010
2466.00,0.0010
2453.00,0.0011
2440.00,0.0009
2427.00,0.0008
2414.00,0.0008
2401.00,0.0006
2388.00,0.0006
2375.00,0.0006
2362.00,0.0007
2349.00,0.0008
2336.00,0.0011
2323.00,0.0017
2310.00,0.0011
2297.00,0.0011
2284.00,0.0016
2271.00,0.0011
2258.00,0.0010
2245.00,0.0009
2232.00,0.0010
2219.00,0.0006
2206.00,0.0010
2193.00,0.0010
2180.00,0.0004
2167.00,0.0015
2154.00,-0.0014
2141.00,-0.0006
2128.00,-0.0005
2115.00,0.0005
2102.00,0.0004
2089.00,0.0006
2076.00,0.0008
2063.00,0.0006
2050.00,0.0013
2037.00,0.0009
2024.00,-0.0000
2011.00,-0.0017
1998.00,0.0000
1985.00,0.0011
1972.00,0.0003
1959.00,0.0007
1946.00,0.0017
1933.00,0.0010
1920.00,0.0006
1907.00,0.0005
1894.00,0.0008
1881.00,0.0016
1868.00,0.0018
1855.00,0.0010
1842.00,0.0006
1829.00,0.0009
1816.00,0.0013
1803.00,0.0023
1790.00,0.0018
1777.00,0.0019
1764.00,0.0024
1751.00,0.0048
1738.00,0.0063
1725.00,0.0051
1712.00,0.0044
1699.00,0.0044
1686.00,0.0054
1673.00,0.0063
1660.00,0.0066
1647.00,0.0062
1634.00,0.0051
1621.00,0.0046
1608.00,0.0071
1595.00,0.0088
1582.00,0.0072
1569.00,0.0039
1556.00,0.0041
1543.00,0.0050
1530.00,0.0042
1517.00,0.0038
1504.00,0.0046
1491.00,0.0300
1478.00,0.0053
1465.00,0.0062
1452.00,0.0325
1439.00,0.0139
1426.00,0.0061
1413.00,0.0055
1400.00,0.0056
1387.00,0.0072
1374.00,0.0094
1361.00,0.0089
1348.00,0.0081
1335.00,0.0075
1322.00,0.0079
1309.00,0.0079
1296.00,0.0071
1283.00,0.0068
1270.00,0.0062
1257.00,0.0058
1244.00,0.0060
1231.00,0.0060
1218.00,0.0060
1205.00,0.0068
1192.00,0.0080
1179.00,0.0098
1166.00,0.0074
1153.00,0.0099
1140.00,0.0059
1127.00,0.0056
1114.00,0.0067
1101.00,0.0069
1088.00,0.0077
1075.00,0.0105
1062.00,0.0103
1049.00,0.0077
1036.00,0.0094
1023.00,0.0145
1010.00,0.0085
997.00,0.0070
984.00,0.0077
971.00,0.0074
958.00,0.0071
945.00,0.0069
932.00,0.0055
919.00,0.0061
906.00,0.0125
893.00,0.0055
880.00,0.0042
867.00,0.0038
854.00,0.0042
841.00,0.0067
828.00,0.0040
815.00,0.0037
802.00,0.0041
789.00,0.0066
776.00,0.0150
763.00,0.0364
750.00,0.0464
737.00,0.0210
724.00,0.0068
711.00,0.0134
698.00,0.1060
685.00,0.0456
672.00,0.0212
659.00,0.0134
646.00,0.0089
633.00,0.0097
620.00,0.0114
607.00,0.0092
594.00,0.0100
581.00,0.0123
568.00,0.0199
555.00,0.0274
542.00,0.0420
529.00,0.0316
516.00,0.0167
503.00,0.0121
490.00,0.0097
477.00,0.0091
464.00,0.0080
451.00,0.0077
438.00,0.0068
425.00,0.0054
412.00,0.0061
400.00,0.0054