File: FTIR/Mary/2025_06_27_Polystyrene_Std_MEL_Scan2.csv
Created as New Dataset,Sample 743 By YargerLab Date Friday, June 27 2025
cm-1,A
4000.00,0.0011
3987.00,0.0011
3974.00,0.0010
3961.00,0.0010
3948.00,0.0011
3935.00,0.0011
3922.00,0.0012
3909.00,0.0010
3896.00,0.0011
3883.00,0.0011
3870.00,0.0011
3857.00,0.0010
3844.00,0.0011
3831.00,0.0011
3818.00,0.0011
3805.00,0.0011
3792.00,0.0011
3779.00,0.0011
3766.00,0.0011
3753.00,0.0012
3740.00,0.0013
3727.00,0.0012
3714.00,0.0011
3701.00,0.0011
3688.00,0.0011
3675.00,0.0009
3662.00,0.0008
3649.00,0.0010
3636.00,0.0009
3623.00,0.0011
3610.00,0.0012
3597.00,0.0011
3584.00,0.0012
3571.00,0.0011
3558.00,0.0011
3545.00,0.0012
3532.00,0.0012
3519.00,0.0012
3506.00,0.0013
3493.00,0.0013
3480.00,0.0013
3467.00,0.0013
3454.00,0.0013
3441.00,0.0014
3428.00,0.0014
3415.00,0.0014
3402.00,0.0014
3389.00,0.0014
3376.00,0.0014
3363.00,0.0014
3350.00,0.0014
3337.00,0.0015
3324.00,0.0014
3311.00,0.0014
3298.00,0.0014
3285.00,0.0014
3272.00,0.0014
3259.00,0.0014
3246.00,0.0013
3233.00,0.0014
3220.00,0.0014
3207.00,0.0013
3194.00,0.0013
3181.00,0.0013
3168.00,0.0013
3155.00,0.0013
3142.00,0.0013
3129.00,0.0014
3116.00,0.0016
3103.00,0.0028
3090.00,0.0036
3077.00,0.0051
3064.00,0.0072
3051.00,0.0054
3038.00,0.0057
3025.00,0.0161
3012.00,0.0045
2999.00,0.0034
2986.00,0.0008
2973.00,0.0008
2960.00,0.0026
2947.00,0.0059
2934.00,0.0131
2921.00,0.0188
2908.00,0.0140
2895.00,0.0080
2882.00,0.0054
2869.00,0.0045
2856.00,0.0072
2843.00,0.0069
2830.00,0.0026
2817.00,0.0020
2804.00,0.0018
2791.00,0.0017
2778.00,0.0016
2765.00,0.0015
2752.00,0.0015
2739.00,0.0015
2726.00,0.0016
2713.00,0.0015
2700.00,0.0015
2687.00,0.0015
2674.00,0.0015
2661.00,0.0016
2648.00,0.0017
2635.00,0.0018
2622.00,0.0016
2609.00,0.0016
2596.00,0.0015
2583.00,0.0014
2570.00,0.0014
2557.00,0.0013
2544.00,0.0013
2531.00,0.0013
2518.00,0.0013
2505.00,0.0012
2492.00,0.0012
2479.00,0.0012
2466.00,0.0011
2453.00,0.0013
2440.00,0.0012
2427.00,0.0011
2414.00,0.0010
2401.00,0.0010
2388.00,0.0010
2375.00,0.0010
2362.00,0.0012
2349.00,0.0013
2336.00,0.0015
2323.00,0.0019
2310.00,0.0017
2297.00,0.0015
2284.00,0.0017
2271.00,0.0014
2258.00,0.0014
2245.00,0.0014
2232.00,0.0013
2219.00,0.0012
2206.00,0.0011
2193.00,0.0011
2180.00,0.0008
2167.00,0.0014
2154.00,-0.0002
2141.00,0.0002
2128.00,0.0005
2115.00,0.0009
2102.00,0.0008
2089.00,0.0009
2076.00,0.0011
2063.00,0.0008
2050.00,0.0014
2037.00,0.0009
2024.00,0.0005
2011.00,0.0006
1998.00,0.0008
1985.00,0.0015
1972.00,0.0006
1959.00,0.0014
1946.00,0.0025
1933.00,0.0017
1920.00,0.0010
1907.00,0.0009
1894.00,0.0016
1881.00,0.0023
1868.00,0.0027
1855.00,0.0015
1842.00,0.0011
1829.00,0.0014
1816.00,0.0020
1803.00,0.0030
1790.00,0.0021
1777.00,0.0017
1764.00,0.0018
1751.00,0.0030
1738.00,0.0034
1725.00,0.0028
1712.00,0.0024
1699.00,0.0023
1686.00,0.0024
1673.00,0.0027
1660.00,0.0026
1647.00,0.0023
1634.00,0.0022
1621.00,0.0025
1608.00,0.0068
1595.00,0.0091
1582.00,0.0070
1569.00,0.0022
1556.00,0.0023
1543.00,0.0031
1530.00,0.0025
1517.00,0.0025
1504.00,0.0042
1491.00,0.0397
1478.00,0.0051
1465.00,0.0051
1452.00,0.0438
1439.00,0.0160
1426.00,0.0050
1413.00,0.0036
1400.00,0.0032
1387.00,0.0053
1374.00,0.0089
1361.00,0.0087
1348.00,0.0080
1335.00,0.0071
1322.00,0.0076
1309.00,0.0079
1296.00,0.0064
1283.00,0.0059
1270.00,0.0046
1257.00,0.0040
1244.00,0.0044
1231.00,0.0044
1218.00,0.0046
1205.00,0.0060
1192.00,0.0074
1179.00,0.0091
1166.00,0.0053
1153.00,0.0091
1140.00,0.0038
1127.00,0.0037
1114.00,0.0055
1101.00,0.0057
1088.00,0.0068
1075.00,0.0111
1062.00,0.0112
1049.00,0.0078
1036.00,0.0109
1023.00,0.0184
1010.00,0.0100
997.00,0.0082
984.00,0.0091
971.00,0.0085
958.00,0.0079
945.00,0.0079
932.00,0.0060
919.00,0.0073
906.00,0.0174
893.00,0.0065
880.00,0.0047
867.00,0.0043
854.00,0.0046
841.00,0.0088
828.00,0.0041
815.00,0.0040
802.00,0.0045
789.00,0.0088
776.00,0.0216
763.00,0.0567
750.00,0.0739
737.00,0.0311
724.00,0.0090
711.00,0.0196
698.00,0.1969
685.00,0.0741
672.00,0.0323
659.00,0.0190
646.00,0.0118
633.00,0.0131
620.00,0.0160
607.00,0.0122
594.00,0.0135
581.00,0.0180
568.00,0.0304
555.00,0.0436
542.00,0.0694
529.00,0.0502
516.00,0.0249
503.00,0.0165
490.00,0.0129
477.00,0.0105
464.00,0.0101
451.00,0.0083
438.00,0.0075
425.00,0.0067
412.00,0.0073
400.00,0.0054