File: FTIR/Mary/2025_10_03_Polystyrene_Calibration_3.csv
Created as New Dataset,Sample 172 By YargerLab Date Friday, October 03 2025
cm-1,A
4000.00,0.0015
3987.00,0.0014
3974.00,0.0014
3961.00,0.0015
3948.00,0.0015
3935.00,0.0015
3922.00,0.0015
3909.00,0.0015
3896.00,0.0017
3883.00,0.0017
3870.00,0.0019
3857.00,0.0019
3844.00,0.0017
3831.00,0.0017
3818.00,0.0018
3805.00,0.0019
3792.00,0.0015
3779.00,0.0016
3766.00,0.0017
3753.00,0.0020
3740.00,0.0020
3727.00,0.0017
3714.00,0.0017
3701.00,0.0015
3688.00,0.0018
3675.00,0.0019
3662.00,0.0015
3649.00,0.0021
3636.00,0.0015
3623.00,0.0018
3610.00,0.0017
3597.00,0.0016
3584.00,0.0016
3571.00,0.0015
3558.00,0.0016
3545.00,0.0019
3532.00,0.0018
3519.00,0.0020
3506.00,0.0019
3493.00,0.0021
3480.00,0.0022
3467.00,0.0022
3454.00,0.0023
3441.00,0.0023
3428.00,0.0023
3415.00,0.0024
3402.00,0.0024
3389.00,0.0023
3376.00,0.0025
3363.00,0.0025
3350.00,0.0026
3337.00,0.0026
3324.00,0.0025
3311.00,0.0025
3298.00,0.0026
3285.00,0.0026
3272.00,0.0026
3259.00,0.0025
3246.00,0.0024
3233.00,0.0023
3220.00,0.0023
3207.00,0.0024
3194.00,0.0022
3181.00,0.0021
3168.00,0.0022
3155.00,0.0020
3142.00,0.0019
3129.00,0.0021
3116.00,0.0023
3103.00,0.0037
3090.00,0.0049
3077.00,0.0064
3064.00,0.0090
3051.00,0.0068
3038.00,0.0075
3025.00,0.0186
3012.00,0.0064
2999.00,0.0061
2986.00,0.0044
2973.00,0.0052
2960.00,0.0077
2947.00,0.0114
2934.00,0.0214
2921.00,0.0286
2908.00,0.0209
2895.00,0.0131
2882.00,0.0094
2869.00,0.0084
2856.00,0.0130
2843.00,0.0105
2830.00,0.0043
2817.00,0.0034
2804.00,0.0031
2791.00,0.0028
2778.00,0.0027
2765.00,0.0025
2752.00,0.0024
2739.00,0.0024
2726.00,0.0024
2713.00,0.0023
2700.00,0.0023
2687.00,0.0022
2674.00,0.0023
2661.00,0.0027
2648.00,0.0028
2635.00,0.0027
2622.00,0.0026
2609.00,0.0025
2596.00,0.0023
2583.00,0.0023
2570.00,0.0020
2557.00,0.0019
2544.00,0.0019
2531.00,0.0019
2518.00,0.0020
2505.00,0.0018
2492.00,0.0017
2479.00,0.0017
2466.00,0.0017
2453.00,0.0017
2440.00,0.0015
2427.00,0.0015
2414.00,0.0014
2401.00,0.0014
2388.00,0.0012
2375.00,0.0012
2362.00,0.0011
2349.00,0.0015
2336.00,0.0019
2323.00,0.0025
2310.00,0.0021
2297.00,0.0021
2284.00,0.0023
2271.00,0.0021
2258.00,0.0019
2245.00,0.0016
2232.00,0.0019
2219.00,0.0014
2206.00,0.0017
2193.00,0.0021
2180.00,0.0013
2167.00,0.0020
2154.00,-0.0010
2141.00,-0.0004
2128.00,-0.0001
2115.00,0.0014
2102.00,0.0014
2089.00,0.0013
2076.00,0.0014
2063.00,0.0009
2050.00,0.0018
2037.00,0.0014
2024.00,0.0001
2011.00,0.0034
1998.00,0.0011
1985.00,0.0021
1972.00,0.0002
1959.00,0.0012
1946.00,0.0027
1933.00,0.0019
1920.00,0.0014
1907.00,0.0013
1894.00,0.0017
1881.00,0.0024
1868.00,0.0032
1855.00,0.0017
1842.00,0.0015
1829.00,0.0017
1816.00,0.0024
1803.00,0.0036
1790.00,0.0026
1777.00,0.0023
1764.00,0.0029
1751.00,0.0061
1738.00,0.0083
1725.00,0.0062
1712.00,0.0043
1699.00,0.0040
1686.00,0.0045
1673.00,0.0053
1660.00,0.0055
1647.00,0.0051
1634.00,0.0043
1621.00,0.0043
1608.00,0.0090
1595.00,0.0107
1582.00,0.0091
1569.00,0.0041
1556.00,0.0040
1543.00,0.0054
1530.00,0.0040
1517.00,0.0038
1504.00,0.0055
1491.00,0.0402
1478.00,0.0069
1465.00,0.0085
1452.00,0.0464
1439.00,0.0192
1426.00,0.0077
1413.00,0.0061
1400.00,0.0060
1387.00,0.0087
1374.00,0.0125
1361.00,0.0114
1348.00,0.0103
1335.00,0.0097
1322.00,0.0100
1309.00,0.0103
1296.00,0.0090
1283.00,0.0084
1270.00,0.0076
1257.00,0.0072
1244.00,0.0076
1231.00,0.0073
1218.00,0.0072
1205.00,0.0083
1192.00,0.0100
1179.00,0.0127
1166.00,0.0095
1153.00,0.0125
1140.00,0.0068
1127.00,0.0065
1114.00,0.0083
1101.00,0.0076
1088.00,0.0090
1075.00,0.0131
1062.00,0.0131
1049.00,0.0097
1036.00,0.0126
1023.00,0.0191
1010.00,0.0115
997.00,0.0096
984.00,0.0106
971.00,0.0105
958.00,0.0100
945.00,0.0093
932.00,0.0074
919.00,0.0083
906.00,0.0171
893.00,0.0077
880.00,0.0060
867.00,0.0054
854.00,0.0058
841.00,0.0097
828.00,0.0053
815.00,0.0052
802.00,0.0056
789.00,0.0095
776.00,0.0218
763.00,0.0534
750.00,0.0684
737.00,0.0314
724.00,0.0105
711.00,0.0205
698.00,0.1693
685.00,0.0669
672.00,0.0329
659.00,0.0209
646.00,0.0147
633.00,0.0154
620.00,0.0183
607.00,0.0152
594.00,0.0160
581.00,0.0195
568.00,0.0306
555.00,0.0422
542.00,0.0644
529.00,0.0474
516.00,0.0256
503.00,0.0191
490.00,0.0154
477.00,0.0129
464.00,0.0125
451.00,0.0122
438.00,0.0117
425.00,0.0101
412.00,0.0119
400.00,0.0096