File: FTIR/Mary/2025_06_10_Standard_Polystyrene_midset_2.csv
Created as New Dataset,Sample 650 By YargerLab Date Tuesday, June 10 2025
cm-1,A
4000.00,0.0039
3987.00,0.0039
3974.00,0.0038
3961.00,0.0039
3948.00,0.0038
3935.00,0.0039
3922.00,0.0038
3909.00,0.0037
3896.00,0.0040
3883.00,0.0038
3870.00,0.0039
3857.00,0.0038
3844.00,0.0038
3831.00,0.0038
3818.00,0.0037
3805.00,0.0038
3792.00,0.0037
3779.00,0.0036
3766.00,0.0037
3753.00,0.0037
3740.00,0.0037
3727.00,0.0037
3714.00,0.0036
3701.00,0.0036
3688.00,0.0036
3675.00,0.0038
3662.00,0.0037
3649.00,0.0038
3636.00,0.0037
3623.00,0.0038
3610.00,0.0039
3597.00,0.0040
3584.00,0.0041
3571.00,0.0042
3558.00,0.0042
3545.00,0.0044
3532.00,0.0044
3519.00,0.0048
3506.00,0.0048
3493.00,0.0049
3480.00,0.0050
3467.00,0.0051
3454.00,0.0055
3441.00,0.0055
3428.00,0.0057
3415.00,0.0060
3402.00,0.0063
3389.00,0.0065
3376.00,0.0069
3363.00,0.0074
3350.00,0.0079
3337.00,0.0087
3324.00,0.0093
3311.00,0.0099
3298.00,0.0103
3285.00,0.0104
3272.00,0.0100
3259.00,0.0093
3246.00,0.0087
3233.00,0.0082
3220.00,0.0078
3207.00,0.0075
3194.00,0.0071
3181.00,0.0067
3168.00,0.0065
3155.00,0.0061
3142.00,0.0060
3129.00,0.0059
3116.00,0.0060
3103.00,0.0071
3090.00,0.0078
3077.00,0.0092
3064.00,0.0109
3051.00,0.0093
3038.00,0.0095
3025.00,0.0176
3012.00,0.0082
2999.00,0.0079
2986.00,0.0064
2973.00,0.0067
2960.00,0.0077
2947.00,0.0100
2934.00,0.0163
2921.00,0.0223
2908.00,0.0176
2895.00,0.0121
2882.00,0.0097
2869.00,0.0085
2856.00,0.0110
2843.00,0.0105
2830.00,0.0063
2817.00,0.0056
2804.00,0.0054
2791.00,0.0051
2778.00,0.0050
2765.00,0.0048
2752.00,0.0047
2739.00,0.0047
2726.00,0.0047
2713.00,0.0046
2700.00,0.0046
2687.00,0.0045
2674.00,0.0045
2661.00,0.0047
2648.00,0.0047
2635.00,0.0047
2622.00,0.0046
2609.00,0.0046
2596.00,0.0044
2583.00,0.0043
2570.00,0.0042
2557.00,0.0042
2544.00,0.0040
2531.00,0.0041
2518.00,0.0041
2505.00,0.0040
2492.00,0.0039
2479.00,0.0038
2466.00,0.0039
2453.00,0.0039
2440.00,0.0038
2427.00,0.0036
2414.00,0.0036
2401.00,0.0035
2388.00,0.0035
2375.00,0.0035
2362.00,0.0037
2349.00,0.0037
2336.00,0.0039
2323.00,0.0043
2310.00,0.0041
2297.00,0.0040
2284.00,0.0041
2271.00,0.0038
2258.00,0.0037
2245.00,0.0036
2232.00,0.0038
2219.00,0.0037
2206.00,0.0037
2193.00,0.0037
2180.00,0.0030
2167.00,0.0047
2154.00,0.0021
2141.00,0.0024
2128.00,0.0026
2115.00,0.0032
2102.00,0.0031
2089.00,0.0030
2076.00,0.0037
2063.00,0.0029
2050.00,0.0036
2037.00,0.0031
2024.00,0.0029
2011.00,0.0005
1998.00,0.0026
1985.00,0.0038
1972.00,0.0029
1959.00,0.0031
1946.00,0.0042
1933.00,0.0034
1920.00,0.0028
1907.00,0.0028
1894.00,0.0032
1881.00,0.0037
1868.00,0.0040
1855.00,0.0031
1842.00,0.0027
1829.00,0.0028
1816.00,0.0032
1803.00,0.0040
1790.00,0.0033
1777.00,0.0029
1764.00,0.0026
1751.00,0.0027
1738.00,0.0026
1725.00,0.0025
1712.00,0.0034
1699.00,0.0077
1686.00,0.0108
1673.00,0.0137
1660.00,0.0161
1647.00,0.0177
1634.00,0.0175
1621.00,0.0145
1608.00,0.0135
1595.00,0.0132
1582.00,0.0116
1569.00,0.0092
1556.00,0.0117
1543.00,0.0147
1530.00,0.0162
1517.00,0.0169
1504.00,0.0162
1491.00,0.0406
1478.00,0.0110
1465.00,0.0107
1452.00,0.0413
1439.00,0.0196
1426.00,0.0099
1413.00,0.0088
1400.00,0.0087
1387.00,0.0105
1374.00,0.0131
1361.00,0.0123
1348.00,0.0120
1335.00,0.0110
1322.00,0.0110
1309.00,0.0115
1296.00,0.0099
1283.00,0.0094
1270.00,0.0089
1257.00,0.0086
1244.00,0.0091
1231.00,0.0104
1218.00,0.0098
1205.00,0.0095
1192.00,0.0100
1179.00,0.0113
1166.00,0.0085
1153.00,0.0116
1140.00,0.0066
1127.00,0.0065
1114.00,0.0077
1101.00,0.0080
1088.00,0.0088
1075.00,0.0125
1062.00,0.0125
1049.00,0.0093
1036.00,0.0114
1023.00,0.0178
1010.00,0.0112
997.00,0.0095
984.00,0.0101
971.00,0.0100
958.00,0.0096
945.00,0.0092
932.00,0.0074
919.00,0.0082
906.00,0.0164
893.00,0.0071
880.00,0.0055
867.00,0.0050
854.00,0.0056
841.00,0.0092
828.00,0.0057
815.00,0.0054
802.00,0.0059
789.00,0.0094
776.00,0.0199
763.00,0.0489
750.00,0.0640
737.00,0.0298
724.00,0.0107
711.00,0.0198
698.00,0.1627
685.00,0.0720
672.00,0.0343
659.00,0.0226
646.00,0.0159
633.00,0.0168
620.00,0.0191
607.00,0.0157
594.00,0.0165
581.00,0.0197
568.00,0.0306
555.00,0.0428
542.00,0.0658
529.00,0.0502
516.00,0.0273
503.00,0.0195
490.00,0.0154
477.00,0.0134
464.00,0.0124
451.00,0.0109
438.00,0.0094
425.00,0.0082
412.00,0.0094
400.00,0.0056