File: FTIR/Mary/2025_10_03_Polystyrene_Calibration_2.csv
Created as New Dataset,Sample 171 By YargerLab Date Friday, October 03 2025
cm-1,A
4000.00,0.0014
3987.00,0.0014
3974.00,0.0013
3961.00,0.0013
3948.00,0.0013
3935.00,0.0014
3922.00,0.0013
3909.00,0.0014
3896.00,0.0013
3883.00,0.0012
3870.00,0.0012
3857.00,0.0013
3844.00,0.0013
3831.00,0.0013
3818.00,0.0012
3805.00,0.0014
3792.00,0.0014
3779.00,0.0014
3766.00,0.0013
3753.00,0.0013
3740.00,0.0012
3727.00,0.0013
3714.00,0.0012
3701.00,0.0013
3688.00,0.0012
3675.00,0.0012
3662.00,0.0014
3649.00,0.0012
3636.00,0.0013
3623.00,0.0013
3610.00,0.0012
3597.00,0.0013
3584.00,0.0014
3571.00,0.0015
3558.00,0.0016
3545.00,0.0017
3532.00,0.0017
3519.00,0.0018
3506.00,0.0020
3493.00,0.0020
3480.00,0.0021
3467.00,0.0021
3454.00,0.0022
3441.00,0.0023
3428.00,0.0023
3415.00,0.0023
3402.00,0.0024
3389.00,0.0023
3376.00,0.0024
3363.00,0.0024
3350.00,0.0025
3337.00,0.0025
3324.00,0.0026
3311.00,0.0026
3298.00,0.0026
3285.00,0.0026
3272.00,0.0026
3259.00,0.0025
3246.00,0.0025
3233.00,0.0023
3220.00,0.0024
3207.00,0.0024
3194.00,0.0023
3181.00,0.0022
3168.00,0.0022
3155.00,0.0021
3142.00,0.0021
3129.00,0.0021
3116.00,0.0024
3103.00,0.0038
3090.00,0.0050
3077.00,0.0065
3064.00,0.0092
3051.00,0.0069
3038.00,0.0076
3025.00,0.0189
3012.00,0.0064
2999.00,0.0062
2986.00,0.0043
2973.00,0.0051
2960.00,0.0076
2947.00,0.0113
2934.00,0.0213
2921.00,0.0288
2908.00,0.0211
2895.00,0.0133
2882.00,0.0096
2869.00,0.0085
2856.00,0.0132
2843.00,0.0107
2830.00,0.0044
2817.00,0.0034
2804.00,0.0031
2791.00,0.0028
2778.00,0.0027
2765.00,0.0025
2752.00,0.0024
2739.00,0.0023
2726.00,0.0024
2713.00,0.0023
2700.00,0.0023
2687.00,0.0023
2674.00,0.0023
2661.00,0.0026
2648.00,0.0027
2635.00,0.0028
2622.00,0.0026
2609.00,0.0025
2596.00,0.0023
2583.00,0.0023
2570.00,0.0020
2557.00,0.0020
2544.00,0.0019
2531.00,0.0019
2518.00,0.0019
2505.00,0.0017
2492.00,0.0018
2479.00,0.0017
2466.00,0.0017
2453.00,0.0018
2440.00,0.0016
2427.00,0.0015
2414.00,0.0014
2401.00,0.0013
2388.00,0.0012
2375.00,0.0012
2362.00,0.0013
2349.00,0.0016
2336.00,0.0019
2323.00,0.0029
2310.00,0.0022
2297.00,0.0022
2284.00,0.0025
2271.00,0.0021
2258.00,0.0019
2245.00,0.0017
2232.00,0.0016
2219.00,0.0016
2206.00,0.0017
2193.00,0.0019
2180.00,0.0012
2167.00,0.0026
2154.00,-0.0009
2141.00,-0.0005
2128.00,0.0000
2115.00,0.0012
2102.00,0.0013
2089.00,0.0011
2076.00,0.0011
2063.00,0.0009
2050.00,0.0017
2037.00,0.0013
2024.00,0.0004
2011.00,0.0007
1998.00,0.0007
1985.00,0.0017
1972.00,0.0006
1959.00,0.0016
1946.00,0.0031
1933.00,0.0017
1920.00,0.0011
1907.00,0.0012
1894.00,0.0018
1881.00,0.0026
1868.00,0.0030
1855.00,0.0017
1842.00,0.0013
1829.00,0.0016
1816.00,0.0023
1803.00,0.0036
1790.00,0.0025
1777.00,0.0023
1764.00,0.0028
1751.00,0.0059
1738.00,0.0074
1725.00,0.0054
1712.00,0.0041
1699.00,0.0038
1686.00,0.0045
1673.00,0.0052
1660.00,0.0056
1647.00,0.0052
1634.00,0.0044
1621.00,0.0047
1608.00,0.0093
1595.00,0.0111
1582.00,0.0095
1569.00,0.0043
1556.00,0.0044
1543.00,0.0057
1530.00,0.0043
1517.00,0.0040
1504.00,0.0055
1491.00,0.0406
1478.00,0.0071
1465.00,0.0084
1452.00,0.0465
1439.00,0.0193
1426.00,0.0078
1413.00,0.0063
1400.00,0.0063
1387.00,0.0087
1374.00,0.0122
1361.00,0.0114
1348.00,0.0104
1335.00,0.0095
1322.00,0.0099
1309.00,0.0101
1296.00,0.0089
1283.00,0.0084
1270.00,0.0074
1257.00,0.0069
1244.00,0.0074
1231.00,0.0071
1218.00,0.0071
1205.00,0.0082
1192.00,0.0098
1179.00,0.0122
1166.00,0.0090
1153.00,0.0124
1140.00,0.0068
1127.00,0.0066
1114.00,0.0087
1101.00,0.0079
1088.00,0.0089
1075.00,0.0129
1062.00,0.0129
1049.00,0.0092
1036.00,0.0120
1023.00,0.0185
1010.00,0.0108
997.00,0.0090
984.00,0.0100
971.00,0.0100
958.00,0.0096
945.00,0.0090
932.00,0.0071
919.00,0.0080
906.00,0.0170
893.00,0.0074
880.00,0.0057
867.00,0.0052
854.00,0.0056
841.00,0.0095
828.00,0.0051
815.00,0.0050
802.00,0.0056
789.00,0.0092
776.00,0.0214
763.00,0.0531
750.00,0.0684
737.00,0.0314
724.00,0.0100
711.00,0.0199
698.00,0.1681
685.00,0.0675
672.00,0.0324
659.00,0.0205
646.00,0.0142
633.00,0.0151
620.00,0.0177
607.00,0.0144
594.00,0.0156
581.00,0.0190
568.00,0.0299
555.00,0.0415
542.00,0.0639
529.00,0.0475
516.00,0.0252
503.00,0.0179
490.00,0.0146
477.00,0.0129
464.00,0.0122
451.00,0.0110
438.00,0.0113
425.00,0.0105
412.00,0.0105
400.00,0.0092