File: FTIR/Mary/2025_10_03_Polystyrene_Calibration_1.csv
Created as New Dataset,Sample 170 By YargerLab Date Friday, October 03 2025
cm-1,A
4000.00,0.0014
3987.00,0.0013
3974.00,0.0013
3961.00,0.0013
3948.00,0.0012
3935.00,0.0013
3922.00,0.0013
3909.00,0.0013
3896.00,0.0012
3883.00,0.0011
3870.00,0.0011
3857.00,0.0012
3844.00,0.0012
3831.00,0.0012
3818.00,0.0011
3805.00,0.0012
3792.00,0.0013
3779.00,0.0013
3766.00,0.0013
3753.00,0.0012
3740.00,0.0011
3727.00,0.0012
3714.00,0.0012
3701.00,0.0013
3688.00,0.0011
3675.00,0.0011
3662.00,0.0013
3649.00,0.0012
3636.00,0.0013
3623.00,0.0013
3610.00,0.0012
3597.00,0.0013
3584.00,0.0013
3571.00,0.0014
3558.00,0.0014
3545.00,0.0015
3532.00,0.0017
3519.00,0.0018
3506.00,0.0018
3493.00,0.0020
3480.00,0.0021
3467.00,0.0021
3454.00,0.0022
3441.00,0.0022
3428.00,0.0022
3415.00,0.0022
3402.00,0.0023
3389.00,0.0022
3376.00,0.0023
3363.00,0.0023
3350.00,0.0023
3337.00,0.0023
3324.00,0.0023
3311.00,0.0024
3298.00,0.0023
3285.00,0.0023
3272.00,0.0023
3259.00,0.0022
3246.00,0.0022
3233.00,0.0021
3220.00,0.0022
3207.00,0.0022
3194.00,0.0022
3181.00,0.0020
3168.00,0.0021
3155.00,0.0020
3142.00,0.0019
3129.00,0.0020
3116.00,0.0024
3103.00,0.0040
3090.00,0.0055
3077.00,0.0073
3064.00,0.0106
3051.00,0.0078
3038.00,0.0087
3025.00,0.0224
3012.00,0.0069
2999.00,0.0068
2986.00,0.0046
2973.00,0.0053
2960.00,0.0076
2947.00,0.0120
2934.00,0.0229
2921.00,0.0305
2908.00,0.0231
2895.00,0.0147
2882.00,0.0107
2869.00,0.0093
2856.00,0.0133
2843.00,0.0113
2830.00,0.0045
2817.00,0.0035
2804.00,0.0031
2791.00,0.0028
2778.00,0.0026
2765.00,0.0024
2752.00,0.0023
2739.00,0.0024
2726.00,0.0024
2713.00,0.0023
2700.00,0.0023
2687.00,0.0022
2674.00,0.0022
2661.00,0.0025
2648.00,0.0027
2635.00,0.0027
2622.00,0.0025
2609.00,0.0024
2596.00,0.0023
2583.00,0.0022
2570.00,0.0021
2557.00,0.0019
2544.00,0.0019
2531.00,0.0018
2518.00,0.0018
2505.00,0.0017
2492.00,0.0017
2479.00,0.0016
2466.00,0.0016
2453.00,0.0017
2440.00,0.0016
2427.00,0.0013
2414.00,0.0013
2401.00,0.0012
2388.00,0.0012
2375.00,0.0012
2362.00,0.0013
2349.00,0.0017
2336.00,0.0020
2323.00,0.0029
2310.00,0.0023
2297.00,0.0022
2284.00,0.0024
2271.00,0.0019
2258.00,0.0018
2245.00,0.0017
2232.00,0.0015
2219.00,0.0014
2206.00,0.0015
2193.00,0.0017
2180.00,0.0010
2167.00,0.0023
2154.00,-0.0009
2141.00,-0.0003
2128.00,-0.0000
2115.00,0.0012
2102.00,0.0011
2089.00,0.0010
2076.00,0.0010
2063.00,0.0008
2050.00,0.0015
2037.00,0.0009
2024.00,0.0002
2011.00,0.0005
1998.00,0.0006
1985.00,0.0017
1972.00,0.0003
1959.00,0.0018
1946.00,0.0034
1933.00,0.0020
1920.00,0.0011
1907.00,0.0012
1894.00,0.0018
1881.00,0.0028
1868.00,0.0035
1855.00,0.0018
1842.00,0.0014
1829.00,0.0017
1816.00,0.0026
1803.00,0.0041
1790.00,0.0027
1777.00,0.0025
1764.00,0.0029
1751.00,0.0053
1738.00,0.0067
1725.00,0.0051
1712.00,0.0037
1699.00,0.0036
1686.00,0.0041
1673.00,0.0047
1660.00,0.0048
1647.00,0.0040
1634.00,0.0035
1621.00,0.0051
1608.00,0.0105
1595.00,0.0123
1582.00,0.0104
1569.00,0.0038
1556.00,0.0034
1543.00,0.0047
1530.00,0.0034
1517.00,0.0034
1504.00,0.0057
1491.00,0.0491
1478.00,0.0074
1465.00,0.0087
1452.00,0.0564
1439.00,0.0224
1426.00,0.0085
1413.00,0.0064
1400.00,0.0068
1387.00,0.0093
1374.00,0.0136
1361.00,0.0131
1348.00,0.0118
1335.00,0.0104
1322.00,0.0109
1309.00,0.0111
1296.00,0.0097
1283.00,0.0093
1270.00,0.0075
1257.00,0.0069
1244.00,0.0077
1231.00,0.0074
1218.00,0.0072
1205.00,0.0083
1192.00,0.0106
1179.00,0.0129
1166.00,0.0090
1153.00,0.0141
1140.00,0.0076
1127.00,0.0081
1114.00,0.0108
1101.00,0.0095
1088.00,0.0102
1075.00,0.0150
1062.00,0.0155
1049.00,0.0106
1036.00,0.0137
1023.00,0.0216
1010.00,0.0122
997.00,0.0100
984.00,0.0112
971.00,0.0112
958.00,0.0109
945.00,0.0103
932.00,0.0080
919.00,0.0091
906.00,0.0198
893.00,0.0083
880.00,0.0063
867.00,0.0060
854.00,0.0063
841.00,0.0111
828.00,0.0059
815.00,0.0059
802.00,0.0060
789.00,0.0103
776.00,0.0250
763.00,0.0638
750.00,0.0821
737.00,0.0365
724.00,0.0109
711.00,0.0230
698.00,0.2086
685.00,0.0781
672.00,0.0369
659.00,0.0229
646.00,0.0156
633.00,0.0167
620.00,0.0197
607.00,0.0161
594.00,0.0173
581.00,0.0214
568.00,0.0346
555.00,0.0485
542.00,0.0752
529.00,0.0548
516.00,0.0289
503.00,0.0203
490.00,0.0165
477.00,0.0145
464.00,0.0132
451.00,0.0119
438.00,0.0121
425.00,0.0111
412.00,0.0117
400.00,0.0091