File: FTIR/db-LASE IR data/AgNPr-LASE unlasered/Silk AgNPr film unlasered 8.26.22.dpt
3997.65	0.00125
3985.3	0.00269
3972.94	0.00308
3960.58	0.00172
3948.22	0.00064
3935.87	0.00112
3923.51	0.00140
3911.15	0.00218
3898.79	0.00181
3886.44	0.00081
3874.08	0.00308
3861.72	0.00325
3849.36	0.00258
3837.01	0.00147
3824.65	0.00109
3812.29	0.00026
3799.93	0.00108
3787.58	0.00270
3775.22	0.00217
3762.86	0.00185
3750.5	0.00336
3738.15	0.00617
3725.79	0.00226
3713.43	0.00159
3701.07	0.00195
3688.72	0.00138
3676.36	0.00341
3664	0.00470
3651.64	0.00785
3639.29	0.00830
3626.93	0.01341
3614.57	0.01555
3602.21	0.01877
3589.86	0.02113
3577.5	0.02427
3565.14	0.02927
3552.78	0.03233
3540.43	0.03579
3528.07	0.03954
3515.71	0.04281
3503.35	0.04634
3491	0.04881
3478.64	0.05044
3466.28	0.05225
3453.92	0.05577
3441.57	0.05684
3429.21	0.05757
3416.85	0.06135
3404.49	0.06381
3392.14	0.06719
3379.78	0.07144
3367.42	0.07439
3355.06	0.07912
3342.71	0.08399
3330.35	0.08911
3317.99	0.09382
3305.63	0.09970
3293.28	0.10330
3280.92	0.10487
3268.56	0.10523
3256.2	0.10155
3243.85	0.09868
3231.49	0.09454
3219.13	0.08992
3206.77	0.08503
3194.42	0.07869
3182.06	0.07150
3169.7	0.06405
3157.34	0.05751
3144.99	0.05262
3132.63	0.04846
3120.27	0.04664
3107.91	0.04623
3095.56	0.04796
3083.2	0.05116
3070.84	0.05184
3058.48	0.05082
3046.13	0.04553
3033.77	0.04083
3021.41	0.03632
3009.05	0.03264
2996.7	0.03210
2984.34	0.03472
2971.98	0.03462
2959.62	0.03480
2947.27	0.03656
2934.91	0.04064
2922.55	0.03940
2910.19	0.03117
2897.84	0.02657
2885.48	0.02408
2873.12	0.02341
2860.76	0.02132
2848.41	0.02188
2836.05	0.01803
2823.69	0.01705
2811.33	0.01611
2798.98	0.01501
2786.62	0.01371
2774.26	0.01220
2761.9	0.01134
2749.55	0.01044
2737.19	0.00945
2724.83	0.00958
2712.47	0.00778
2700.12	0.00798
2687.76	0.00752
2675.4	0.00778
2663.04	0.00751
2650.69	0.00775
2638.33	0.00739
2625.97	0.00745
2613.61	0.00696
2601.26	0.00572
2588.9	0.00601
2576.54	0.00546
2564.18	0.00457
2551.83	0.00454
2539.47	0.00445
2527.11	0.00415
2514.75	0.00469
2502.4	0.00331
2490.04	0.00384
2477.68	0.00363
2465.32	0.00341
2452.97	0.00349
2440.61	0.00398
2428.25	0.00366
2415.89	0.00316
2403.54	0.00278
2391.18	0.00346
2378.82	0.00240
2366.46	0.00045
2354.11	0.00113
2341.75	0.00111
2329.39	0.00181
2317.03	0.00347
2304.68	0.00426
2292.32	0.00410
2279.96	0.00396
2267.6	0.00444
2255.25	0.00239
2242.89	0.00415
2230.53	0.00418
2218.17	0.00411
2205.82	0.00381
2193.46	0.00205
2181.1	0.00294
2168.74	0.00294
2156.39	0.00384
2144.03	0.00199
2131.67	0.00226
2119.31	0.00364
2106.96	0.00366
2094.6	0.00389
2082.24	0.00332
2069.88	0.00293
2057.53	0.00358
2045.17	0.00369
2032.81	0.00322
2020.45	0.00243
2008.1	0.00306
1995.74	0.00429
1983.38	0.00383
1971.02	0.00097
1958.67	0.00079
1946.31	0.00259
1933.95	0.00305
1921.59	0.00173
1909.24	0.00269
1896.88	0.00285
1884.52	0.00317
1872.16	0.00196
1859.81	0.00289
1847.45	0.00218
1835.09	0.00290
1822.73	0.00331
1810.38	0.00337
1798.02	0.00386
1785.66	0.00417
1773.3	0.00492
1760.95	0.00532
1748.59	0.00631
1736.23	0.00760
1723.87	0.00992
1711.52	0.01777
1699.16	0.03923
1686.8	0.06764
1674.44	0.09868
1662.09	0.12976
1649.73	0.15595
1637.37	0.16493
1625.01	0.14688
1612.66	0.10765
1600.3	0.07347
1587.94	0.06331
1575.58	0.07330
1563.23	0.09632
1550.87	0.12608
1538.51	0.14825
1526.15	0.15532
1513.8	0.16204
1501.44	0.13681
1489.08	0.09761
1476.72	0.07232
1464.37	0.06996
1452.01	0.07868
1439.65	0.06805
1427.29	0.06004
1414.94	0.07078
1402.58	0.07010
1390.22	0.06851
1377.86	0.07085
1365.5	0.06022
1353.15	0.05183
1340.79	0.05850
1328.43	0.05922
1316.07	0.05314
1303.72	0.05587
1291.36	0.05986
1279	0.06350
1266.64	0.07264
1254.29	0.08345
1241.93	0.09607
1229.57	0.09827
1217.21	0.07901
1204.86	0.05798
1192.5	0.04680
1180.14	0.04747
1167.78	0.05320
1155.43	0.04944
1143.07	0.04285
1130.71	0.04058
1118.35	0.04093
1106	0.04184
1093.64	0.04076
1081.28	0.04765
1068.92	0.05370
1056.57	0.05576
1044.21	0.05077
1031.85	0.04518
1019.49	0.04590
1007.14	0.04308
994.78	0.03057
982.422	0.02563
970.065	0.02478
957.707	0.02698
945.35	0.02924
932.992	0.02702
920.635	0.02429
908.277	0.02249
895.92	0.02127
883.562	0.02181
871.205	0.02264
858.847	0.02617
846.49	0.02845
834.132	0.03091
821.774	0.03154
809.417	0.03332
797.059	0.03497
784.702	0.03741
772.344	0.04035
759.987	0.04360
747.629	0.04799
735.272	0.05217
722.914	0.05632
710.557	0.06010
698.199	0.06445
685.842	0.06856
673.484	0.07201
661.127	0.07500
648.769	0.07619
636.412	0.07723
624.054	0.07793
611.697	0.07959
599.339	0.08078
586.982	0.08331
574.624	0.08636
562.267	0.09071
549.909	0.09532
537.552	0.09734
525.194	0.09749
512.837	0.09910
500.479	0.09950
488.122	0.09856
475.764	0.09621
463.407	0.09402
451.049	0.09123
438.692	0.08917
426.334	0.08912
413.977	0.08785
401.619	0.08742
399.56	0.08756