File: FTIR/db-LASE IR data/AgNPr-LASE unlasered/Silk AgNPr film unlasered 9.22.22.dpt
3997.65	0.01173
3985.3	0.01069
3972.94	0.01096
3960.58	0.01119
3948.22	0.00831
3935.87	0.00837
3923.51	0.00905
3911.15	0.00899
3898.79	0.00939
3886.44	0.00813
3874.08	0.00582
3861.72	0.00763
3849.36	0.00433
3837.01	0.01011
3824.65	0.00626
3812.29	0.00526
3799.93	0.00820
3787.58	0.00876
3775.22	0.00667
3762.86	0.00650
3750.5	0.01172
3738.15	0.00644
3725.79	0.00881
3713.43	0.01070
3701.07	0.01156
3688.72	0.01474
3676.36	0.01811
3664	0.01859
3651.64	0.02699
3639.29	0.03414
3626.93	0.04313
3614.57	0.05117
3602.21	0.06373
3589.86	0.07476
3577.5	0.08811
3565.14	0.10336
3552.78	0.11556
3540.43	0.12905
3528.07	0.14243
3515.71	0.15320
3503.35	0.16373
3491	0.17261
3478.64	0.17942
3466.28	0.18647
3453.92	0.19321
3441.57	0.19960
3429.21	0.20829
3416.85	0.21803
3404.49	0.22956
3392.14	0.24137
3379.78	0.25481
3367.42	0.27050
3355.06	0.28792
3342.71	0.30786
3330.35	0.33028
3317.99	0.35194
3305.63	0.37430
3293.28	0.39062
3280.92	0.39743
3268.56	0.39613
3256.2	0.37929
3243.85	0.35653
3231.49	0.33594
3219.13	0.31370
3206.77	0.29071
3194.42	0.26539
3182.06	0.24022
3169.7	0.21416
3157.34	0.19173
3144.99	0.17407
3132.63	0.16167
3120.27	0.15715
3107.91	0.15868
3095.56	0.16503
3083.2	0.17333
3070.84	0.17533
3058.48	0.16740
3046.13	0.15205
3033.77	0.13289
3021.41	0.11683
3009.05	0.10678
2996.7	0.10798
2984.34	0.11676
2971.98	0.11517
2959.62	0.11499
2947.27	0.12130
2934.91	0.13472
2922.55	0.12344
2910.19	0.09733
2897.84	0.08306
2885.48	0.07966
2873.12	0.07854
2860.76	0.06858
2848.41	0.06692
2836.05	0.05797
2823.69	0.05554
2811.33	0.05269
2798.98	0.04871
2786.62	0.04439
2774.26	0.04020
2761.9	0.03650
2749.55	0.03455
2737.19	0.03116
2724.83	0.02963
2712.47	0.02811
2700.12	0.02678
2687.76	0.02565
2675.4	0.02495
2663.04	0.02396
2650.69	0.02340
2638.33	0.02299
2625.97	0.02247
2613.61	0.02103
2601.26	0.01997
2588.9	0.01871
2576.54	0.01739
2564.18	0.01596
2551.83	0.01502
2539.47	0.01444
2527.11	0.01488
2514.75	0.01411
2502.4	0.01495
2490.04	0.01288
2477.68	0.01324
2465.32	0.01284
2452.97	0.01230
2440.61	0.01233
2428.25	0.01157
2415.89	0.01170
2403.54	0.01057
2391.18	0.01105
2378.82	0.00960
2366.46	0.00813
2354.11	0.00940
2341.75	0.01202
2329.39	0.00828
2317.03	0.01329
2304.68	0.01229
2292.32	0.01128
2279.96	0.01069
2267.6	0.01141
2255.25	0.01070
2242.89	0.01018
2230.53	0.01054
2218.17	0.01019
2205.82	0.01184
2193.46	0.01195
2181.1	0.01057
2168.74	0.01123
2156.39	0.00879
2144.03	0.00809
2131.67	0.01007
2119.31	0.01133
2106.96	0.01239
2094.6	0.01100
2082.24	0.01073
2069.88	0.01078
2057.53	0.01023
2045.17	0.00771
2032.81	0.00677
2020.45	0.00591
2008.1	0.00884
1995.74	0.00729
1983.38	0.00949
1971.02	0.00556
1958.67	0.00718
1946.31	0.00618
1933.95	0.00685
1921.59	0.00730
1909.24	0.00803
1896.88	0.00811
1884.52	0.00882
1872.16	0.00788
1859.81	0.00806
1847.45	0.00793
1835.09	0.00875
1822.73	0.00932
1810.38	0.01077
1798.02	0.01072
1785.66	0.01211
1773.3	0.01442
1760.95	0.01535
1748.59	0.01763
1736.23	0.01906
1723.87	0.02502
1711.52	0.04192
1699.16	0.10179
1686.8	0.18164
1674.44	0.27917
1662.09	0.39302
1649.73	0.50000
1637.37	0.55259
1625.01	0.49224
1612.66	0.34615
1600.3	0.22760
1587.94	0.19158
1575.58	0.22185
1563.23	0.29035
1550.87	0.39095
1538.51	0.46832
1526.15	0.49595
1513.8	0.52340
1501.44	0.43054
1489.08	0.29666
1476.72	0.21836
1464.37	0.20841
1452.01	0.23527
1439.65	0.19961
1427.29	0.17478
1414.94	0.20642
1402.58	0.19892
1390.22	0.19400
1377.86	0.20324
1365.5	0.17027
1353.15	0.14617
1340.79	0.16871
1328.43	0.17317
1316.07	0.15144
1303.72	0.15781
1291.36	0.16869
1279	0.18025
1266.64	0.20579
1254.29	0.23517
1241.93	0.27226
1229.57	0.27770
1217.21	0.21972
1204.86	0.15879
1192.5	0.12564
1180.14	0.12604
1167.78	0.14139
1155.43	0.13044
1143.07	0.11135
1130.71	0.10287
1118.35	0.10241
1106	0.10274
1093.64	0.09538
1081.28	0.11298
1068.92	0.12628
1056.57	0.13091
1044.21	0.11489
1031.85	0.10212
1019.49	0.10784
1007.14	0.10151
994.78	0.07082
982.422	0.05876
970.065	0.05823
957.707	0.06359
945.35	0.06721
932.992	0.06175
920.635	0.05520
908.277	0.05071
895.92	0.04936
883.562	0.05017
871.205	0.05247
858.847	0.06144
846.49	0.06624
834.132	0.07313
821.774	0.07503
809.417	0.07908
797.059	0.08326
784.702	0.08820
772.344	0.09451
759.987	0.10261
747.629	0.11207
735.272	0.12081
722.914	0.12903
710.557	0.13732
698.199	0.14697
685.842	0.15409
673.484	0.16205
661.127	0.16712
648.769	0.16879
636.412	0.16955
624.054	0.16924
611.697	0.16897
599.339	0.17024
586.982	0.17314
574.624	0.17918
562.267	0.18781
549.909	0.19546
537.552	0.19809
525.194	0.19504
512.837	0.19328
500.479	0.19060
488.122	0.18776
475.764	0.18110
463.407	0.17364
451.049	0.16595
438.692	0.15998
426.334	0.15484
413.977	0.15071
401.619	0.14684
399.56	0.14629