File: FTIR/db-LASE IR data/AgNPr-LASE unlasered/Silk AgNPr film unlasered 2 9.22.22.dpt
3997.65	0.00651
3985.3	0.00652
3972.94	0.00585
3960.58	0.00631
3948.22	0.00539
3935.87	0.00547
3923.51	0.00594
3911.15	0.00522
3898.79	0.00572
3886.44	0.00524
3874.08	0.00490
3861.72	0.00387
3849.36	0.00495
3837.01	0.00630
3824.65	0.00490
3812.29	0.00458
3799.93	0.00598
3787.58	0.00612
3775.22	0.00546
3762.86	0.00520
3750.5	0.00650
3738.15	0.00558
3725.79	0.00597
3713.43	0.00774
3701.07	0.00719
3688.72	0.00888
3676.36	0.01383
3664	0.01729
3651.64	0.02507
3639.29	0.03224
3626.93	0.04131
3614.57	0.05157
3602.21	0.06391
3589.86	0.07625
3577.5	0.08842
3565.14	0.10449
3552.78	0.11743
3540.43	0.13287
3528.07	0.14626
3515.71	0.15694
3503.35	0.16747
3491	0.17614
3478.64	0.18339
3466.28	0.19041
3453.92	0.19831
3441.57	0.20523
3429.21	0.21187
3416.85	0.22316
3404.49	0.23438
3392.14	0.24828
3379.78	0.26310
3367.42	0.27857
3355.06	0.29676
3342.71	0.31865
3330.35	0.34191
3317.99	0.36501
3305.63	0.38954
3293.28	0.40760
3280.92	0.41533
3268.56	0.41281
3256.2	0.39622
3243.85	0.37137
3231.49	0.34915
3219.13	0.32658
3206.77	0.30244
3194.42	0.27518
3182.06	0.24778
3169.7	0.22067
3157.34	0.19655
3144.99	0.17764
3132.63	0.16533
3120.27	0.16127
3107.91	0.16249
3095.56	0.16964
3083.2	0.17862
3070.84	0.18139
3058.48	0.17309
3046.13	0.15623
3033.77	0.13560
3021.41	0.11931
3009.05	0.10871
2996.7	0.11005
2984.34	0.11902
2971.98	0.11596
2959.62	0.11281
2947.27	0.11962
2934.91	0.13099
2922.55	0.10904
2910.19	0.08489
2897.84	0.07590
2885.48	0.07402
2873.12	0.07306
2860.76	0.06228
2848.41	0.04990
2836.05	0.05354
2823.69	0.05324
2811.33	0.05041
2798.98	0.04637
2786.62	0.04170
2774.26	0.03776
2761.9	0.03390
2749.55	0.03228
2737.19	0.02848
2724.83	0.02687
2712.47	0.02538
2700.12	0.02365
2687.76	0.02323
2675.4	0.02207
2663.04	0.02120
2650.69	0.02052
2638.33	0.02002
2625.97	0.02001
2613.61	0.01812
2601.26	0.01736
2588.9	0.01592
2576.54	0.01456
2564.18	0.01397
2551.83	0.01236
2539.47	0.01240
2527.11	0.01219
2514.75	0.01220
2502.4	0.01182
2490.04	0.01063
2477.68	0.01155
2465.32	0.01072
2452.97	0.01049
2440.61	0.01002
2428.25	0.00935
2415.89	0.00906
2403.54	0.00893
2391.18	0.00879
2378.82	0.00854
2366.46	0.00573
2354.11	0.00642
2341.75	0.00831
2329.39	0.01068
2317.03	0.00561
2304.68	0.00877
2292.32	0.01006
2279.96	0.00957
2267.6	0.01087
2255.25	0.00919
2242.89	0.00893
2230.53	0.00849
2218.17	0.00951
2205.82	0.00980
2193.46	0.01059
2181.1	0.00963
2168.74	0.01119
2156.39	0.00648
2144.03	0.00699
2131.67	0.00794
2119.31	0.01006
2106.96	0.01098
2094.6	0.00938
2082.24	0.00938
2069.88	0.00964
2057.53	0.00868
2045.17	0.00836
2032.81	0.00501
2020.45	0.00663
2008.1	0.00898
1995.74	0.00721
1983.38	0.00622
1971.02	0.00568
1958.67	0.00515
1946.31	0.00486
1933.95	0.00665
1921.59	0.00738
1909.24	0.00750
1896.88	0.00756
1884.52	0.00764
1872.16	0.00750
1859.81	0.00742
1847.45	0.00790
1835.09	0.00815
1822.73	0.00894
1810.38	0.00980
1798.02	0.01070
1785.66	0.01201
1773.3	0.01340
1760.95	0.01494
1748.59	0.01760
1736.23	0.02034
1723.87	0.02573
1711.52	0.04478
1699.16	0.10749
1686.8	0.19275
1674.44	0.29669
1662.09	0.41904
1649.73	0.54027
1637.37	0.59346
1625.01	0.52760
1612.66	0.37074
1600.3	0.24052
1587.94	0.20129
1575.58	0.23149
1563.23	0.31099
1550.87	0.41841
1538.51	0.50194
1526.15	0.53421
1513.8	0.56551
1501.44	0.46212
1489.08	0.31275
1476.72	0.22793
1464.37	0.21646
1452.01	0.24807
1439.65	0.20876
1427.29	0.18232
1414.94	0.21692
1402.58	0.20911
1390.22	0.20421
1377.86	0.21275
1365.5	0.17741
1353.15	0.15148
1340.79	0.17564
1328.43	0.18043
1316.07	0.15728
1303.72	0.16435
1291.36	0.17611
1279	0.18852
1266.64	0.21608
1254.29	0.24760
1241.93	0.28756
1229.57	0.29305
1217.21	0.23022
1204.86	0.16482
1192.5	0.12978
1180.14	0.13045
1167.78	0.14632
1155.43	0.13432
1143.07	0.11404
1130.71	0.10490
1118.35	0.10361
1106	0.10343
1093.64	0.09607
1081.28	0.11479
1068.92	0.12866
1056.57	0.13283
1044.21	0.11570
1031.85	0.10204
1019.49	0.10806
1007.14	0.10152
994.78	0.06984
982.422	0.05751
970.065	0.05780
957.707	0.06363
945.35	0.06800
932.992	0.06237
920.635	0.05588
908.277	0.05116
895.92	0.04941
883.562	0.05043
871.205	0.05339
858.847	0.06279
846.49	0.06846
834.132	0.07531
821.774	0.07712
809.417	0.08161
797.059	0.08587
784.702	0.09110
772.344	0.09810
759.987	0.10610
747.629	0.11621
735.272	0.12547
722.914	0.13395
710.557	0.14269
698.199	0.15289
685.842	0.16037
673.484	0.16779
661.127	0.17386
648.769	0.17548
636.412	0.17601
624.054	0.17515
611.697	0.17486
599.339	0.17551
586.982	0.17838
574.624	0.18539
562.267	0.19329
549.909	0.20275
537.552	0.20487
525.194	0.20163
512.837	0.20011
500.479	0.19623
488.122	0.19372
475.764	0.18659
463.407	0.17809
451.049	0.17014
438.692	0.16477
426.334	0.15851
413.977	0.15514
401.619	0.14981
399.56	0.14756