File: FTIR/db-LASE IR data/AgNPr-LASE unlasered/Silk AgNPr film unlasered 2 8.26.22.dpt
3997.65	0.00034
3985.3	0.00119
3972.94	0.00096
3960.58	0.00034
3948.22	-0.00107
3935.87	-0.00157
3923.51	0.00085
3911.15	0.00026
3898.79	0.00105
3886.44	0.00027
3874.08	0.00161
3861.72	0.00070
3849.36	0.00152
3837.01	-0.00153
3824.65	-0.00069
3812.29	-0.00094
3799.93	0.00075
3787.58	0.00075
3775.22	0.00111
3762.86	0.00023
3750.5	0.00017
3738.15	0.00233
3725.79	0.00080
3713.43	0.00006
3701.07	0.00225
3688.72	0.00260
3676.36	0.00272
3664	0.00362
3651.64	0.00611
3639.29	0.00889
3626.93	0.01414
3614.57	0.01570
3602.21	0.01913
3589.86	0.02350
3577.5	0.02774
3565.14	0.03142
3552.78	0.03709
3540.43	0.04121
3528.07	0.04433
3515.71	0.04941
3503.35	0.05174
3491	0.05550
3478.64	0.05751
3466.28	0.06059
3453.92	0.06139
3441.57	0.06429
3429.21	0.06525
3416.85	0.06932
3404.49	0.07229
3392.14	0.07659
3379.78	0.08098
3367.42	0.08445
3355.06	0.09115
3342.71	0.09590
3330.35	0.10093
3317.99	0.10789
3305.63	0.11374
3293.28	0.11916
3280.92	0.11970
3268.56	0.11955
3256.2	0.11465
3243.85	0.10946
3231.49	0.10294
3219.13	0.09739
3206.77	0.09035
3194.42	0.08320
3182.06	0.07582
3169.7	0.06743
3157.34	0.05993
3144.99	0.05467
3132.63	0.05186
3120.27	0.04997
3107.91	0.05005
3095.56	0.05197
3083.2	0.05550
3070.84	0.05606
3058.48	0.05378
3046.13	0.04724
3033.77	0.04219
3021.41	0.03680
3009.05	0.03359
2996.7	0.03342
2984.34	0.03672
2971.98	0.03618
2959.62	0.03537
2947.27	0.03812
2934.91	0.04215
2922.55	0.03711
2910.19	0.02916
2897.84	0.02516
2885.48	0.02316
2873.12	0.02282
2860.76	0.02035
2848.41	0.01886
2836.05	0.01717
2823.69	0.01602
2811.33	0.01527
2798.98	0.01389
2786.62	0.01254
2774.26	0.01148
2761.9	0.01008
2749.55	0.00888
2737.19	0.00786
2724.83	0.00760
2712.47	0.00689
2700.12	0.00648
2687.76	0.00640
2675.4	0.00654
2663.04	0.00640
2650.69	0.00608
2638.33	0.00616
2625.97	0.00571
2613.61	0.00569
2601.26	0.00427
2588.9	0.00461
2576.54	0.00414
2564.18	0.00372
2551.83	0.00296
2539.47	0.00298
2527.11	0.00281
2514.75	0.00324
2502.4	0.00165
2490.04	0.00267
2477.68	0.00187
2465.32	0.00247
2452.97	0.00189
2440.61	0.00238
2428.25	0.00238
2415.89	0.00113
2403.54	0.00120
2391.18	0.00212
2378.82	0.00172
2366.46	0.00208
2354.11	0.00298
2341.75	0.00210
2329.39	0.00200
2317.03	0.00318
2304.68	0.00383
2292.32	0.00282
2279.96	0.00318
2267.6	0.00361
2255.25	0.00182
2242.89	0.00237
2230.53	0.00208
2218.17	0.00316
2205.82	0.00263
2193.46	0.00138
2181.1	0.00243
2168.74	0.00068
2156.39	0.00312
2144.03	0.00058
2131.67	0.00102
2119.31	0.00238
2106.96	0.00279
2094.6	0.00292
2082.24	0.00288
2069.88	0.00212
2057.53	0.00183
2045.17	0.00209
2032.81	0.00221
2020.45	0.00177
2008.1	0.00032
1995.74	0.00141
1983.38	0.00176
1971.02	0.00218
1958.67	0.00024
1946.31	0.00117
1933.95	0.00201
1921.59	0.00027
1909.24	0.00078
1896.88	0.00106
1884.52	0.00099
1872.16	0.00155
1859.81	0.00181
1847.45	0.00136
1835.09	0.00208
1822.73	0.00237
1810.38	0.00214
1798.02	0.00284
1785.66	0.00336
1773.3	0.00348
1760.95	0.00452
1748.59	0.00521
1736.23	0.00625
1723.87	0.00836
1711.52	0.01464
1699.16	0.03349
1686.8	0.05781
1674.44	0.08339
1662.09	0.10955
1649.73	0.13314
1637.37	0.14204
1625.01	0.13043
1612.66	0.09908
1600.3	0.06944
1587.94	0.05992
1575.58	0.06803
1563.23	0.08651
1550.87	0.10940
1538.51	0.12573
1526.15	0.12985
1513.8	0.13422
1501.44	0.11495
1489.08	0.08365
1476.72	0.06321
1464.37	0.06174
1452.01	0.06919
1439.65	0.05936
1427.29	0.05285
1414.94	0.06175
1402.58	0.06037
1390.22	0.05916
1377.86	0.06033
1365.5	0.05120
1353.15	0.04421
1340.79	0.05046
1328.43	0.05132
1316.07	0.04570
1303.72	0.04749
1291.36	0.05076
1279	0.05368
1266.64	0.06047
1254.29	0.06819
1241.93	0.07694
1229.57	0.07756
1217.21	0.06273
1204.86	0.04602
1192.5	0.03713
1180.14	0.03773
1167.78	0.04193
1155.43	0.03856
1143.07	0.03320
1130.71	0.03071
1118.35	0.03060
1106	0.03065
1093.64	0.02876
1081.28	0.03409
1068.92	0.03767
1056.57	0.03878
1044.21	0.03400
1031.85	0.03022
1019.49	0.03186
1007.14	0.02942
994.78	0.02070
982.422	0.01757
970.065	0.01726
957.707	0.01926
945.35	0.02041
932.992	0.01893
920.635	0.01700
908.277	0.01581
895.92	0.01525
883.562	0.01586
871.205	0.01651
858.847	0.01905
846.49	0.02099
834.132	0.02329
821.774	0.02366
809.417	0.02487
797.059	0.02620
784.702	0.02773
772.344	0.02949
759.987	0.03189
747.629	0.03450
735.272	0.03694
722.914	0.03903
710.557	0.04131
698.199	0.04324
685.842	0.04567
673.484	0.04747
661.127	0.04833
648.769	0.04877
636.412	0.04915
624.054	0.04881
611.697	0.04890
599.339	0.04913
586.982	0.04970
574.624	0.05134
562.267	0.05306
549.909	0.05542
537.552	0.05560
525.194	0.05521
512.837	0.05506
500.479	0.05532
488.122	0.05408
475.764	0.05272
463.407	0.05124
451.049	0.04965
438.692	0.04862
426.334	0.04714
413.977	0.04688
401.619	0.04715
399.56	0.04740