File: FTIR/db-LASE IR data/AgNPr-LASE lasered at 55C/Silk AgNPr film 55C 8.26.22.dpt
3997.65	-0.00451
3985.3	-0.00331
3972.94	-0.00279
3960.58	-0.00416
3948.22	-0.00485
3935.87	-0.00470
3923.51	-0.00254
3911.15	-0.00261
3898.79	-0.00306
3886.44	-0.00348
3874.08	-0.00334
3861.72	-0.00301
3849.36	-0.00255
3837.01	-0.00542
3824.65	-0.00344
3812.29	-0.00388
3799.93	-0.00415
3787.58	-0.00288
3775.22	-0.00233
3762.86	-0.00275
3750.5	-0.00099
3738.15	0.00084
3725.79	-0.00152
3713.43	-0.00231
3701.07	-0.00054
3688.72	-0.00001
3676.36	0.00199
3664	0.00509
3651.64	0.01140
3639.29	0.01543
3626.93	0.02488
3614.57	0.03188
3602.21	0.03897
3589.86	0.04707
3577.5	0.05527
3565.14	0.06582
3552.78	0.07480
3540.43	0.08411
3528.07	0.09289
3515.71	0.10096
3503.35	0.10858
3491	0.11371
3478.64	0.11964
3466.28	0.12454
3453.92	0.12868
3441.57	0.13302
3429.21	0.13737
3416.85	0.14494
3404.49	0.15406
3392.14	0.16207
3379.78	0.17136
3367.42	0.18058
3355.06	0.19314
3342.71	0.20542
3330.35	0.21845
3317.99	0.23375
3305.63	0.24797
3293.28	0.25896
3280.92	0.26225
3268.56	0.26004
3256.2	0.24880
3243.85	0.23493
3231.49	0.22095
3219.13	0.20756
3206.77	0.19271
3194.42	0.17675
3182.06	0.15923
3169.7	0.14171
3157.34	0.12589
3144.99	0.11467
3132.63	0.10715
3120.27	0.10411
3107.91	0.10577
3095.56	0.10852
3083.2	0.11574
3070.84	0.11653
3058.48	0.11153
3046.13	0.09989
3033.77	0.08761
3021.41	0.07757
3009.05	0.07008
2996.7	0.07089
2984.34	0.07702
2971.98	0.07471
2959.62	0.07252
2947.27	0.07767
2934.91	0.08531
2922.55	0.06627
2910.19	0.04849
2897.84	0.04702
2885.48	0.04612
2873.12	0.04514
2860.76	0.03863
2848.41	0.02347
2836.05	0.03246
2823.69	0.03199
2811.33	0.03059
2798.98	0.02763
2786.62	0.02522
2774.26	0.02216
2761.9	0.01925
2749.55	0.01768
2737.19	0.01601
2724.83	0.01511
2712.47	0.01350
2700.12	0.01283
2687.76	0.01222
2675.4	0.01206
2663.04	0.01148
2650.69	0.01120
2638.33	0.01051
2625.97	0.01043
2613.61	0.00965
2601.26	0.00868
2588.9	0.00879
2576.54	0.00702
2564.18	0.00615
2551.83	0.00544
2539.47	0.00547
2527.11	0.00568
2514.75	0.00549
2502.4	0.00404
2490.04	0.00497
2477.68	0.00411
2465.32	0.00376
2452.97	0.00400
2440.61	0.00448
2428.25	0.00407
2415.89	0.00304
2403.54	0.00267
2391.18	0.00311
2378.82	0.00407
2366.46	0.00853
2354.11	0.00849
2341.75	0.00644
2329.39	0.01056
2317.03	0.00343
2304.68	0.00472
2292.32	0.00469
2279.96	0.00528
2267.6	0.00526
2255.25	0.00319
2242.89	0.00414
2230.53	0.00461
2218.17	0.00367
2205.82	0.00401
2193.46	0.00424
2181.1	0.00371
2168.74	0.00430
2156.39	0.00280
2144.03	0.00392
2131.67	0.00379
2119.31	0.00453
2106.96	0.00588
2094.6	0.00529
2082.24	0.00477
2069.88	0.00435
2057.53	0.00352
2045.17	0.00476
2032.81	0.00379
2020.45	0.00268
2008.1	0.00363
1995.74	0.00357
1983.38	0.00338
1971.02	0.00171
1958.67	0.00157
1946.31	0.00294
1933.95	0.00328
1921.59	0.00227
1909.24	0.00293
1896.88	0.00329
1884.52	0.00371
1872.16	0.00317
1859.81	0.00401
1847.45	0.00385
1835.09	0.00490
1822.73	0.00534
1810.38	0.00526
1798.02	0.00640
1785.66	0.00727
1773.3	0.00821
1760.95	0.00961
1748.59	0.01140
1736.23	0.01369
1723.87	0.01781
1711.52	0.03138
1699.16	0.07227
1686.8	0.12750
1674.44	0.19019
1662.09	0.25883
1649.73	0.32110
1637.37	0.34558
1625.01	0.31285
1612.66	0.22954
1600.3	0.15521
1587.94	0.13232
1575.58	0.14934
1563.23	0.19604
1550.87	0.25588
1538.51	0.29820
1526.15	0.31506
1513.8	0.32983
1501.44	0.27771
1489.08	0.19595
1476.72	0.14355
1464.37	0.13817
1452.01	0.15747
1439.65	0.13499
1427.29	0.11896
1414.94	0.14044
1402.58	0.13676
1390.22	0.13393
1377.86	0.13776
1365.5	0.11577
1353.15	0.09964
1340.79	0.11430
1328.43	0.11733
1316.07	0.10369
1303.72	0.10795
1291.36	0.11531
1279	0.12292
1266.64	0.13930
1254.29	0.15833
1241.93	0.18115
1229.57	0.18425
1217.21	0.14791
1204.86	0.10763
1192.5	0.08534
1180.14	0.08617
1167.78	0.09654
1155.43	0.08920
1143.07	0.07651
1130.71	0.07058
1118.35	0.07013
1106	0.07007
1093.64	0.06599
1081.28	0.07784
1068.92	0.08699
1056.57	0.08928
1044.21	0.07811
1031.85	0.06934
1019.49	0.07296
1007.14	0.06840
994.78	0.04803
982.422	0.04049
970.065	0.04006
957.707	0.04381
945.35	0.04664
932.992	0.04315
920.635	0.03894
908.277	0.03576
895.92	0.03473
883.562	0.03539
871.205	0.03732
858.847	0.04367
846.49	0.04760
834.132	0.05238
821.774	0.05338
809.417	0.05643
797.059	0.05982
784.702	0.06331
772.344	0.06801
759.987	0.07373
747.629	0.08057
735.272	0.08682
722.914	0.09305
710.557	0.09898
698.199	0.10602
685.842	0.11180
673.484	0.11684
661.127	0.12048
648.769	0.12245
636.412	0.12270
624.054	0.12215
611.697	0.12262
599.339	0.12453
586.982	0.12650
574.624	0.13134
562.267	0.13662
549.909	0.14357
537.552	0.14492
525.194	0.14339
512.837	0.14382
500.479	0.14155
488.122	0.14003
475.764	0.13557
463.407	0.13129
451.049	0.12558
438.692	0.12211
426.334	0.11898
413.977	0.11761
401.619	0.11483
399.56	0.11456