File: FTIR/db-LASE IR data/AgNPr-LASE lasered at 55C/Silk AgNPr film 55C 2 9.22.22.dpt
3997.65	-0.00268
3985.3	-0.00250
3972.94	-0.00258
3960.58	-0.00170
3948.22	-0.00380
3935.87	-0.00317
3923.51	-0.00239
3911.15	-0.00208
3898.79	-0.00234
3886.44	-0.00228
3874.08	-0.00257
3861.72	-0.00313
3849.36	-0.00334
3837.01	-0.00168
3824.65	-0.00189
3812.29	-0.00246
3799.93	-0.00116
3787.58	-0.00115
3775.22	-0.00132
3762.86	-0.00205
3750.5	-0.00010
3738.15	-0.00111
3725.79	-0.00131
3713.43	-0.00047
3701.07	-0.00175
3688.72	-0.00012
3676.36	0.00205
3664	0.00329
3651.64	0.00665
3639.29	0.00746
3626.93	0.01073
3614.57	0.01342
3602.21	0.01769
3589.86	0.02203
3577.5	0.02640
3565.14	0.03163
3552.78	0.03436
3540.43	0.04013
3528.07	0.04477
3515.71	0.04745
3503.35	0.05138
3491	0.05414
3478.64	0.05641
3466.28	0.05966
3453.92	0.06263
3441.57	0.06422
3429.21	0.06604
3416.85	0.06933
3404.49	0.07244
3392.14	0.07685
3379.78	0.08100
3367.42	0.08557
3355.06	0.09018
3342.71	0.09520
3330.35	0.10175
3317.99	0.10855
3305.63	0.11461
3293.28	0.11941
3280.92	0.12249
3268.56	0.12317
3256.2	0.11978
3243.85	0.11433
3231.49	0.11034
3219.13	0.10514
3206.77	0.09871
3194.42	0.09043
3182.06	0.08403
3169.7	0.07534
3157.34	0.06766
3144.99	0.06179
3132.63	0.05698
3120.27	0.05540
3107.91	0.05580
3095.56	0.05731
3083.2	0.05987
3070.84	0.06134
3058.48	0.05918
3046.13	0.05498
3033.77	0.04814
3021.41	0.04255
3009.05	0.03851
2996.7	0.03916
2984.34	0.04097
2971.98	0.03855
2959.62	0.03278
2947.27	0.03645
2934.91	0.03519
2922.55	0.00330
2910.19	-0.00142
2897.84	0.01352
2885.48	0.01775
2873.12	0.01884
2860.76	0.01350
2848.41	-0.02129
2836.05	0.01367
2823.69	0.01593
2811.33	0.01606
2798.98	0.01474
2786.62	0.01354
2774.26	0.01261
2761.9	0.01097
2749.55	0.01097
2737.19	0.00890
2724.83	0.00899
2712.47	0.00846
2700.12	0.00746
2687.76	0.00770
2675.4	0.00712
2663.04	0.00675
2650.69	0.00725
2638.33	0.00685
2625.97	0.00704
2613.61	0.00581
2601.26	0.00593
2588.9	0.00503
2576.54	0.00411
2564.18	0.00485
2551.83	0.00398
2539.47	0.00396
2527.11	0.00399
2514.75	0.00358
2502.4	0.00382
2490.04	0.00330
2477.68	0.00386
2465.32	0.00421
2452.97	0.00374
2440.61	0.00327
2428.25	0.00344
2415.89	0.00247
2403.54	0.00288
2391.18	0.00307
2378.82	0.00208
2366.46	0.00066
2354.11	0.00345
2341.75	0.00499
2329.39	0.00023
2317.03	0.00610
2304.68	0.00573
2292.32	0.00361
2279.96	0.00383
2267.6	0.00426
2255.25	0.00441
2242.89	0.00274
2230.53	0.00370
2218.17	0.00326
2205.82	0.00418
2193.46	0.00555
2181.1	0.00273
2168.74	0.00125
2156.39	0.00038
2144.03	0.00014
2131.67	0.00055
2119.31	0.00329
2106.96	0.00332
2094.6	0.00323
2082.24	0.00463
2069.88	0.00352
2057.53	0.00334
2045.17	0.00028
2032.81	0.00081
2020.45	0.00140
2008.1	0.00351
1995.74	0.00123
1983.38	0.00305
1971.02	0.00074
1958.67	0.00174
1946.31	0.00258
1933.95	0.00159
1921.59	0.00231
1909.24	0.00280
1896.88	0.00258
1884.52	0.00272
1872.16	0.00313
1859.81	0.00280
1847.45	0.00316
1835.09	0.00334
1822.73	0.00352
1810.38	0.00392
1798.02	0.00435
1785.66	0.00460
1773.3	0.00539
1760.95	0.00591
1748.59	0.00750
1736.23	0.00872
1723.87	0.01019
1711.52	0.01818
1699.16	0.04119
1686.8	0.06992
1674.44	0.10208
1662.09	0.13465
1649.73	0.16275
1637.37	0.17280
1625.01	0.15609
1612.66	0.11590
1600.3	0.07954
1587.94	0.06744
1575.58	0.07345
1563.23	0.10132
1550.87	0.13190
1538.51	0.14894
1526.15	0.16237
1513.8	0.17016
1501.44	0.14432
1489.08	0.10251
1476.72	0.07449
1464.37	0.06973
1452.01	0.08250
1439.65	0.07081
1427.29	0.06247
1414.94	0.07421
1402.58	0.07422
1390.22	0.07306
1377.86	0.07471
1365.5	0.06313
1353.15	0.05447
1340.79	0.06253
1328.43	0.06395
1316.07	0.05718
1303.72	0.05954
1291.36	0.06321
1279	0.06746
1266.64	0.07679
1254.29	0.08718
1241.93	0.10033
1229.57	0.10187
1217.21	0.08159
1204.86	0.06004
1192.5	0.04903
1180.14	0.05030
1167.78	0.05725
1155.43	0.05475
1143.07	0.04964
1130.71	0.04766
1118.35	0.04874
1106	0.05031
1093.64	0.04882
1081.28	0.05535
1068.92	0.06062
1056.57	0.06184
1044.21	0.05392
1031.85	0.04811
1019.49	0.04992
1007.14	0.04740
994.78	0.03573
982.422	0.03069
970.065	0.02935
957.707	0.03079
945.35	0.03241
932.992	0.02987
920.635	0.02689
908.277	0.02497
895.92	0.02428
883.562	0.02496
871.205	0.02600
858.847	0.02994
846.49	0.03184
834.132	0.03417
821.774	0.03481
809.417	0.03643
797.059	0.03837
784.702	0.04074
772.344	0.04360
759.987	0.04712
747.629	0.05185
735.272	0.05560
722.914	0.05912
710.557	0.06379
698.199	0.06808
685.842	0.07166
673.484	0.07557
661.127	0.07842
648.769	0.07995
636.412	0.08103
624.054	0.08137
611.697	0.08184
599.339	0.08326
586.982	0.08527
574.624	0.08919
562.267	0.09391
549.909	0.09952
537.552	0.10147
525.194	0.10073
512.837	0.10050
500.479	0.09980
488.122	0.09912
475.764	0.09707
463.407	0.09421
451.049	0.09239
438.692	0.08915
426.334	0.08834
413.977	0.08698
401.619	0.08570
399.56	0.08559