File: FTIR/db-LASE IR data/AgNPr-LASE lasered at 55C/Silk AgNPr film 55C 2 8.26.22.dpt
3997.65	0.00266
3985.3	0.00278
3972.94	0.00277
3960.58	0.00354
3948.22	0.00152
3935.87	0.00226
3923.51	0.00285
3911.15	0.00224
3898.79	0.00295
3886.44	0.00183
3874.08	0.00281
3861.72	0.00412
3849.36	0.00369
3837.01	0.00046
3824.65	0.00160
3812.29	0.00066
3799.93	-0.00017
3787.58	0.00261
3775.22	0.00245
3762.86	0.00242
3750.5	0.00303
3738.15	0.00573
3725.79	0.00421
3713.43	0.00378
3701.07	0.00539
3688.72	0.00811
3676.36	0.01294
3664	0.02028
3651.64	0.03021
3639.29	0.04325
3626.93	0.05886
3614.57	0.07437
3602.21	0.08921
3589.86	0.10804
3577.5	0.12732
3565.14	0.14936
3552.78	0.16927
3540.43	0.18964
3528.07	0.20861
3515.71	0.22689
3503.35	0.24378
3491	0.25667
3478.64	0.26851
3466.28	0.27712
3453.92	0.28845
3441.57	0.29740
3429.21	0.30933
3416.85	0.32604
3404.49	0.34347
3392.14	0.36308
3379.78	0.38441
3367.42	0.40844
3355.06	0.43547
3342.71	0.46572
3330.35	0.50021
3317.99	0.53617
3305.63	0.57148
3293.28	0.59890
3280.92	0.61175
3268.56	0.60654
3256.2	0.57996
3243.85	0.54624
3231.49	0.51270
3219.13	0.47944
3206.77	0.44296
3194.42	0.40354
3182.06	0.36204
3169.7	0.32188
3157.34	0.28584
3144.99	0.25788
3132.63	0.23975
3120.27	0.23202
3107.91	0.23386
3095.56	0.24290
3083.2	0.25656
3070.84	0.25961
3058.48	0.24918
3046.13	0.22478
3033.77	0.19591
3021.41	0.17118
3009.05	0.15518
2996.7	0.15598
2984.34	0.16848
2971.98	0.16457
2959.62	0.16083
2947.27	0.17002
2934.91	0.18545
2922.55	0.15181
2910.19	0.11761
2897.84	0.10733
2885.48	0.10408
2873.12	0.10146
2860.76	0.08645
2848.41	0.06661
2836.05	0.07401
2823.69	0.07227
2811.33	0.06887
2798.98	0.06304
2786.62	0.05711
2774.26	0.05083
2761.9	0.04534
2749.55	0.04190
2737.19	0.03782
2724.83	0.03584
2712.47	0.03246
2700.12	0.03107
2687.76	0.03027
2675.4	0.02854
2663.04	0.02747
2650.69	0.02670
2638.33	0.02576
2625.97	0.02446
2613.61	0.02340
2601.26	0.02147
2588.9	0.02070
2576.54	0.01827
2564.18	0.01664
2551.83	0.01613
2539.47	0.01484
2527.11	0.01485
2514.75	0.01481
2502.4	0.01328
2490.04	0.01390
2477.68	0.01252
2465.32	0.01268
2452.97	0.01189
2440.61	0.01197
2428.25	0.01169
2415.89	0.01052
2403.54	0.01029
2391.18	0.01021
2378.82	0.01108
2366.46	0.01204
2354.11	0.01185
2341.75	0.01030
2329.39	0.01422
2317.03	0.01094
2304.68	0.01184
2292.32	0.01202
2279.96	0.01182
2267.6	0.01133
2255.25	0.00969
2242.89	0.01084
2230.53	0.01041
2218.17	0.00999
2205.82	0.01095
2193.46	0.01081
2181.1	0.01189
2168.74	0.00998
2156.39	0.01008
2144.03	0.01113
2131.67	0.01093
2119.31	0.01285
2106.96	0.01297
2094.6	0.01298
2082.24	0.01254
2069.88	0.01162
2057.53	0.01058
2045.17	0.00930
2032.81	0.00840
2020.45	0.00843
2008.1	0.00907
1995.74	0.00774
1983.38	0.00835
1971.02	0.00578
1958.67	0.00677
1946.31	0.00741
1933.95	0.00776
1921.59	0.00741
1909.24	0.00877
1896.88	0.00889
1884.52	0.00912
1872.16	0.00871
1859.81	0.00957
1847.45	0.00948
1835.09	0.01042
1822.73	0.01161
1810.38	0.01237
1798.02	0.01406
1785.66	0.01553
1773.3	0.01690
1760.95	0.01918
1748.59	0.02220
1736.23	0.02606
1723.87	0.03381
1711.52	0.05889
1699.16	0.13686
1686.8	0.24510
1674.44	0.37801
1662.09	0.53945
1649.73	0.71442
1637.37	0.79871
1625.01	0.70480
1612.66	0.48361
1600.3	0.31356
1587.94	0.26386
1575.58	0.30106
1563.23	0.40288
1550.87	0.54703
1538.51	0.66552
1526.15	0.70941
1513.8	0.74782
1501.44	0.59105
1489.08	0.38933
1476.72	0.28091
1464.37	0.27222
1452.01	0.31312
1439.65	0.26223
1427.29	0.22952
1414.94	0.27488
1402.58	0.26670
1390.22	0.26109
1377.86	0.26841
1365.5	0.22223
1353.15	0.18968
1340.79	0.21865
1328.43	0.22401
1316.07	0.19659
1303.72	0.20554
1291.36	0.22004
1279	0.23485
1266.64	0.26842
1254.29	0.30867
1241.93	0.35695
1229.57	0.36014
1217.21	0.27692
1204.86	0.19654
1192.5	0.15540
1180.14	0.15751
1167.78	0.17694
1155.43	0.16180
1143.07	0.13778
1130.71	0.12747
1118.35	0.12653
1106	0.12633
1093.64	0.11813
1081.28	0.14016
1068.92	0.15660
1056.57	0.16047
1044.21	0.13869
1031.85	0.12263
1019.49	0.12925
1007.14	0.12004
994.78	0.08300
982.422	0.06974
970.065	0.06887
957.707	0.07534
945.35	0.08066
932.992	0.07420
920.635	0.06671
908.277	0.06120
895.92	0.05868
883.562	0.05978
871.205	0.06289
858.847	0.07344
846.49	0.07987
834.132	0.08807
821.774	0.08973
809.417	0.09481
797.059	0.09913
784.702	0.10552
772.344	0.11303
759.987	0.12201
747.629	0.13352
735.272	0.14327
722.914	0.15285
710.557	0.16253
698.199	0.17368
685.842	0.18246
673.484	0.19114
661.127	0.19674
648.769	0.19830
636.412	0.19828
624.054	0.19770
611.697	0.19676
599.339	0.19765
586.982	0.20048
574.624	0.20694
562.267	0.21518
549.909	0.22500
537.552	0.22692
525.194	0.22485
512.837	0.22133
500.479	0.21853
488.122	0.21355
475.764	0.20511
463.407	0.19596
451.049	0.18770
438.692	0.17983
426.334	0.17241
413.977	0.16719
401.619	0.16340
399.56	0.16222