File: FTIR/db-LASE IR data/AgNPr-LASE lasered at 55C/Silk AgNPr film 55C 9.22.22.dpt
3997.65	-0.00211
3985.3	-0.00326
3972.94	-0.00211
3960.58	-0.00217
3948.22	-0.00386
3935.87	-0.00314
3923.51	-0.00259
3911.15	-0.00269
3898.79	-0.00322
3886.44	-0.00366
3874.08	-0.00441
3861.72	-0.00389
3849.36	-0.00249
3837.01	-0.00160
3824.65	-0.00201
3812.29	-0.00294
3799.93	-0.00204
3787.58	-0.00248
3775.22	-0.00146
3762.86	-0.00269
3750.5	-0.00035
3738.15	-0.00240
3725.79	-0.00195
3713.43	-0.00138
3701.07	-0.00155
3688.72	-0.00004
3676.36	0.00390
3664	0.00531
3651.64	0.01032
3639.29	0.01374
3626.93	0.01848
3614.57	0.02375
3602.21	0.03076
3589.86	0.03524
3577.5	0.04238
3565.14	0.05120
3552.78	0.05655
3540.43	0.06416
3528.07	0.07034
3515.71	0.07629
3503.35	0.08101
3491	0.08594
3478.64	0.09012
3466.28	0.09438
3453.92	0.09833
3441.57	0.10096
3429.21	0.10446
3416.85	0.10907
3404.49	0.11451
3392.14	0.11957
3379.78	0.12573
3367.42	0.13299
3355.06	0.14055
3342.71	0.14992
3330.35	0.16254
3317.99	0.17634
3305.63	0.19128
3293.28	0.20762
3280.92	0.21720
3268.56	0.21622
3256.2	0.20409
3243.85	0.18867
3231.49	0.17732
3219.13	0.16632
3206.77	0.15308
3194.42	0.14024
3182.06	0.12788
3169.7	0.11410
3157.34	0.10283
3144.99	0.09366
3132.63	0.08621
3120.27	0.08431
3107.91	0.08527
3095.56	0.08826
3083.2	0.09221
3070.84	0.09387
3058.48	0.08830
3046.13	0.08061
3033.77	0.07080
3021.41	0.06247
3009.05	0.05663
2996.7	0.05811
2984.34	0.06192
2971.98	0.06027
2959.62	0.05497
2947.27	0.05822
2934.91	0.06104
2922.55	0.03095
2910.19	0.01986
2897.84	0.03013
2885.48	0.03343
2873.12	0.03474
2860.76	0.02782
2848.41	-0.00539
2836.05	0.02392
2823.69	0.02563
2811.33	0.02474
2798.98	0.02320
2786.62	0.02109
2774.26	0.01938
2761.9	0.01765
2749.55	0.01645
2737.19	0.01440
2724.83	0.01374
2712.47	0.01248
2700.12	0.01155
2687.76	0.01131
2675.4	0.01096
2663.04	0.01018
2650.69	0.01046
2638.33	0.01039
2625.97	0.01014
2613.61	0.00927
2601.26	0.00833
2588.9	0.00804
2576.54	0.00723
2564.18	0.00666
2551.83	0.00609
2539.47	0.00639
2527.11	0.00582
2514.75	0.00592
2502.4	0.00587
2490.04	0.00509
2477.68	0.00571
2465.32	0.00520
2452.97	0.00419
2440.61	0.00441
2428.25	0.00432
2415.89	0.00479
2403.54	0.00406
2391.18	0.00358
2378.82	0.00453
2366.46	0.00617
2354.11	0.00530
2341.75	0.00581
2329.39	0.00678
2317.03	0.00630
2304.68	0.00532
2292.32	0.00536
2279.96	0.00510
2267.6	0.00595
2255.25	0.00493
2242.89	0.00452
2230.53	0.00417
2218.17	0.00436
2205.82	0.00645
2193.46	0.00718
2181.1	0.00523
2168.74	0.00668
2156.39	0.00181
2144.03	0.00184
2131.67	0.00340
2119.31	0.00597
2106.96	0.00508
2094.6	0.00520
2082.24	0.00540
2069.88	0.00561
2057.53	0.00424
2045.17	0.00297
2032.81	0.00339
2020.45	0.00181
2008.1	0.00520
1995.74	0.00296
1983.38	0.00439
1971.02	0.00218
1958.67	0.00270
1946.31	0.00290
1933.95	0.00303
1921.59	0.00316
1909.24	0.00347
1896.88	0.00331
1884.52	0.00389
1872.16	0.00390
1859.81	0.00407
1847.45	0.00381
1835.09	0.00381
1822.73	0.00478
1810.38	0.00499
1798.02	0.00596
1785.66	0.00631
1773.3	0.00715
1760.95	0.00793
1748.59	0.00994
1736.23	0.01166
1723.87	0.01389
1711.52	0.02443
1699.16	0.06126
1686.8	0.09327
1674.44	0.13456
1662.09	0.17835
1649.73	0.21823
1637.37	0.23298
1625.01	0.23859
1612.66	0.20105
1600.3	0.13056
1587.94	0.10220
1575.58	0.10734
1563.23	0.14259
1550.87	0.18359
1538.51	0.21185
1526.15	0.23255
1513.8	0.24681
1501.44	0.21205
1489.08	0.15288
1476.72	0.11269
1464.37	0.10544
1452.01	0.12460
1439.65	0.11436
1427.29	0.09678
1414.94	0.10875
1402.58	0.10799
1390.22	0.10507
1377.86	0.10580
1365.5	0.09217
1353.15	0.07936
1340.79	0.08819
1328.43	0.08933
1316.07	0.08003
1303.72	0.08185
1291.36	0.08547
1279	0.09170
1266.64	0.10636
1254.29	0.11815
1241.93	0.13420
1229.57	0.13866
1217.21	0.11412
1204.86	0.08437
1192.5	0.06727
1180.14	0.06748
1167.78	0.07743
1155.43	0.07257
1143.07	0.06236
1130.71	0.05727
1118.35	0.05668
1106	0.05765
1093.64	0.05542
1081.28	0.06499
1068.92	0.07324
1056.57	0.07437
1044.21	0.06529
1031.85	0.05785
1019.49	0.05897
1007.14	0.05644
994.78	0.04491
982.422	0.03809
970.065	0.03716
957.707	0.03739
945.35	0.03838
932.992	0.03607
920.635	0.03282
908.277	0.02993
895.92	0.02900
883.562	0.02954
871.205	0.03057
858.847	0.03518
846.49	0.03787
834.132	0.04151
821.774	0.04259
809.417	0.04458
797.059	0.04657
784.702	0.04981
772.344	0.05359
759.987	0.05825
747.629	0.06397
735.272	0.06968
722.914	0.07523
710.557	0.08104
698.199	0.08691
685.842	0.09109
673.484	0.09420
661.127	0.09691
648.769	0.09902
636.412	0.09976
624.054	0.10010
611.697	0.10063
599.339	0.10050
586.982	0.10110
574.624	0.10434
562.267	0.10883
549.909	0.11562
537.552	0.11677
525.194	0.11478
512.837	0.11363
500.479	0.11225
488.122	0.11177
475.764	0.10852
463.407	0.10558
451.049	0.10190
438.692	0.09971
426.334	0.09927
413.977	0.09672
401.619	0.09354
399.56	0.09335