File: FTIR/db-LASE IR data/Silk only film/Silk only 6.21.22 2.dpt
3997.7	0.00336
3985.34	0.00425
3972.98	0.00357
3960.63	0.00326
3948.27	0.00327
3935.91	0.00349
3923.55	0.00456
3911.2	0.00287
3898.84	0.00423
3886.48	0.00449
3874.12	0.00353
3861.77	0.00513
3849.41	0.00397
3837.05	0.00443
3824.69	0.00315
3812.34	0.00358
3799.98	0.00416
3787.62	0.00247
3775.26	0.00354
3762.9	0.00392
3750.55	0.00441
3738.19	0.00488
3725.83	0.00308
3713.47	0.00467
3701.12	0.00395
3688.76	0.00611
3676.4	0.00514
3664.04	0.00470
3651.69	0.00783
3639.33	0.00834
3626.97	0.01137
3614.61	0.01268
3602.26	0.01362
3589.9	0.01649
3577.54	0.01707
3565.18	0.02158
3552.82	0.02207
3540.47	0.02516
3528.11	0.02775
3515.75	0.02849
3503.39	0.03011
3491.04	0.03105
3478.68	0.03253
3466.32	0.03447
3453.96	0.03456
3441.61	0.03675
3429.25	0.03898
3416.89	0.03895
3404.53	0.04277
3392.18	0.04446
3379.82	0.04655
3367.46	0.04926
3355.1	0.05231
3342.74	0.05425
3330.39	0.05870
3318.03	0.06226
3305.67	0.06575
3293.31	0.06913
3280.96	0.06999
3268.6	0.06899
3256.24	0.06648
3243.88	0.06321
3231.53	0.05940
3219.17	0.05619
3206.81	0.05277
3194.45	0.04809
3182.1	0.04379
3169.74	0.03957
3157.38	0.03503
3145.02	0.03261
3132.66	0.03075
3120.31	0.03011
3107.95	0.02954
3095.59	0.03178
3083.23	0.03253
3070.88	0.03337
3058.52	0.03165
3046.16	0.02867
3033.8	0.02593
3021.45	0.02281
3009.09	0.02141
2996.73	0.02158
2984.37	0.02295
2972.02	0.02237
2959.66	0.02241
2947.3	0.02266
2934.94	0.02497
2922.58	0.02145
2910.23	0.01840
2897.87	0.01606
2885.51	0.01567
2873.15	0.01470
2860.8	0.01320
2848.44	0.01276
2836.08	0.01214
2823.72	0.01142
2811.37	0.01107
2799.01	0.01053
2786.65	0.00973
2774.29	0.00892
2761.94	0.00861
2749.58	0.00812
2737.22	0.00679
2724.86	0.00688
2712.5	0.00644
2700.15	0.00630
2687.79	0.00622
2675.43	0.00559
2663.07	0.00565
2650.72	0.00642
2638.36	0.00549
2626	0.00561
2613.64	0.00485
2601.29	0.00457
2588.93	0.00420
2576.57	0.00388
2564.21	0.00418
2551.85	0.00401
2539.5	0.00387
2527.14	0.00445
2514.78	0.00307
2502.42	0.00384
2490.07	0.00293
2477.71	0.00312
2465.35	0.00327
2452.99	0.00285
2440.64	0.00296
2428.28	0.00289
2415.92	0.00278
2403.56	0.00217
2391.21	0.00245
2378.85	0.00295
2366.49	0.00269
2354.13	0.00326
2341.77	0.00273
2329.42	0.00329
2317.06	0.00298
2304.7	0.00353
2292.34	0.00346
2279.99	0.00418
2267.63	0.00231
2255.27	0.00293
2242.91	0.00290
2230.56	0.00217
2218.2	0.00184
2205.84	0.00186
2193.48	0.00300
2181.13	0.00088
2168.77	0.00461
2156.41	0.00016
2144.05	0.00127
2131.69	0.00166
2119.34	0.00277
2106.98	0.00306
2094.62	0.00237
2082.26	0.00285
2069.91	0.00210
2057.55	0.00138
2045.19	0.00161
2032.83	0.00148
2020.48	0.00034
2008.12	0.00151
1995.76	0.00254
1983.4	0.00170
1971.05	0.00277
1958.69	0.00016
1946.33	0.00073
1933.97	0.00150
1921.61	0.00121
1909.26	0.00206
1896.9	0.00190
1884.54	0.00197
1872.18	0.00201
1859.83	0.00198
1847.47	0.00204
1835.11	0.00213
1822.75	0.00244
1810.4	0.00248
1798.04	0.00313
1785.68	0.00304
1773.32	0.00372
1760.97	0.00363
1748.61	0.00409
1736.25	0.00507
1723.89	0.00546
1711.53	0.00986
1699.18	0.02202
1686.82	0.03676
1674.46	0.05297
1662.1	0.06914
1649.75	0.08270
1637.39	0.08865
1625.03	0.08082
1612.67	0.06169
1600.32	0.04271
1587.96	0.03643
1575.6	0.04106
1563.24	0.05292
1550.89	0.06687
1538.53	0.07701
1526.17	0.08203
1513.81	0.08592
1501.45	0.07650
1489.1	0.05725
1476.74	0.04267
1464.38	0.03988
1452.02	0.04466
1439.67	0.03919
1427.31	0.03419
1414.95	0.03949
1402.59	0.03856
1390.24	0.03770
1377.88	0.03899
1365.52	0.03384
1353.16	0.02937
1340.81	0.03314
1328.45	0.03391
1316.09	0.03027
1303.73	0.03122
1291.37	0.03296
1279.02	0.03514
1266.66	0.03960
1254.3	0.04440
1241.94	0.05038
1229.59	0.05199
1217.23	0.04391
1204.87	0.03335
1192.51	0.02667
1180.16	0.02635
1167.8	0.02905
1155.44	0.02729
1143.08	0.02375
1130.73	0.02188
1118.37	0.02161
1106.01	0.02174
1093.65	0.02034
1081.29	0.02358
1068.94	0.02654
1056.58	0.02722
1044.22	0.02428
1031.86	0.02192
1019.51	0.02286
1007.15	0.02197
994.791	0.01591
982.433	0.01347
970.076	0.01336
957.718	0.01449
945.36	0.01530
933.003	0.01441
920.645	0.01301
908.287	0.01194
895.93	0.01159
883.572	0.01157
871.214	0.01218
858.857	0.01410
846.499	0.01535
834.141	0.01681
821.784	0.01715
809.426	0.01808
797.068	0.01919
784.711	0.02017
772.353	0.02146
759.996	0.02309
747.638	0.02558
735.28	0.02717
722.923	0.02893
710.565	0.03099
698.207	0.03299
685.85	0.03455
673.492	0.03647
661.134	0.03721
648.777	0.03802
636.419	0.03838
624.061	0.03885
611.704	0.03926
599.346	0.03942
586.988	0.04103
574.631	0.04234
562.273	0.04393
549.915	0.04644
537.558	0.04715
525.2	0.04682
512.843	0.04683
500.485	0.04686
488.127	0.04661
475.77	0.04590
463.412	0.04546
451.054	0.04380
438.697	0.04320
426.339	0.04341
413.981	0.04357
401.624	0.04206
399.564	0.04239