File: FTIR/db-LASE IR data/Silk only film/Silk only 6.21.22 1.dpt
3997.7	0.00264
3985.34	0.00327
3972.98	0.00287
3960.63	0.00283
3948.27	0.00256
3935.91	0.00280
3923.55	0.00402
3911.2	0.00197
3898.84	0.00221
3886.48	0.00244
3874.12	0.00119
3861.77	0.00339
3849.41	0.00210
3837.05	0.00243
3824.69	0.00053
3812.34	0.00275
3799.98	0.00282
3787.62	0.00303
3775.26	0.00202
3762.9	0.00304
3750.55	0.00374
3738.19	0.00275
3725.83	0.00143
3713.47	0.00339
3701.12	0.00378
3688.76	0.00503
3676.4	0.00368
3664.04	0.00646
3651.69	0.00926
3639.33	0.01232
3626.97	0.01571
3614.61	0.01931
3602.26	0.02241
3589.9	0.02831
3577.54	0.03005
3565.18	0.03660
3552.82	0.04025
3540.47	0.04626
3528.11	0.05041
3515.75	0.05398
3503.39	0.05650
3491.04	0.05994
3478.68	0.06204
3466.32	0.06367
3453.96	0.06718
3441.61	0.06954
3429.25	0.07322
3416.89	0.07408
3404.53	0.08096
3392.18	0.08342
3379.82	0.08802
3367.46	0.09293
3355.1	0.09838
3342.74	0.10435
3330.39	0.11080
3318.03	0.11850
3305.67	0.12526
3293.31	0.13095
3280.96	0.13372
3268.6	0.13287
3256.24	0.12663
3243.88	0.12004
3231.53	0.11303
3219.17	0.10583
3206.81	0.09835
3194.45	0.09040
3182.1	0.08233
3169.74	0.07401
3157.38	0.06661
3145.02	0.06066
3132.66	0.05689
3120.31	0.05569
3107.95	0.05576
3095.59	0.05777
3083.23	0.06122
3070.88	0.06179
3058.52	0.05933
3046.16	0.05258
3033.8	0.04730
3021.45	0.04151
3009.09	0.03779
2996.73	0.03877
2984.37	0.04205
2972.02	0.04146
2959.66	0.04101
2947.3	0.04194
2934.94	0.04571
2922.58	0.03976
2910.23	0.03301
2897.87	0.02898
2885.51	0.02846
2873.15	0.02618
2860.8	0.02315
2848.44	0.02179
2836.08	0.02034
2823.72	0.01902
2811.37	0.01848
2799.01	0.01740
2786.65	0.01586
2774.29	0.01434
2761.94	0.01311
2749.58	0.01254
2737.22	0.01081
2724.86	0.01020
2712.5	0.01011
2700.15	0.00935
2687.79	0.00890
2675.43	0.00843
2663.07	0.00868
2650.72	0.00885
2638.36	0.00802
2626	0.00793
2613.64	0.00741
2601.29	0.00705
2588.93	0.00629
2576.57	0.00504
2564.21	0.00542
2551.85	0.00430
2539.5	0.00483
2527.14	0.00516
2514.78	0.00379
2502.42	0.00467
2490.07	0.00341
2477.71	0.00380
2465.35	0.00386
2452.99	0.00367
2440.64	0.00315
2428.28	0.00322
2415.92	0.00300
2403.56	0.00263
2391.21	0.00260
2378.85	0.00292
2366.49	0.00299
2354.13	0.00355
2341.77	0.00316
2329.42	0.00340
2317.06	0.00368
2304.7	0.00443
2292.34	0.00466
2279.99	0.00442
2267.63	0.00252
2255.27	0.00245
2242.91	0.00362
2230.56	0.00223
2218.2	0.00241
2205.84	0.00318
2193.48	0.00332
2181.13	0.00074
2168.77	0.00323
2156.41	0.00124
2144.05	0.00158
2131.69	0.00226
2119.34	0.00361
2106.98	0.00336
2094.62	0.00234
2082.26	0.00378
2069.91	0.00279
2057.55	0.00329
2045.19	0.00237
2032.83	0.00135
2020.48	0.00080
2008.12	0.00117
1995.76	0.00384
1983.4	0.00260
1971.05	0.00227
1958.69	-0.00019
1946.33	0.00122
1933.97	0.00231
1921.61	0.00140
1909.26	0.00275
1896.9	0.00262
1884.54	0.00259
1872.18	0.00271
1859.83	0.00247
1847.47	0.00275
1835.11	0.00318
1822.75	0.00305
1810.4	0.00357
1798.04	0.00427
1785.68	0.00448
1773.32	0.00511
1760.97	0.00584
1748.61	0.00674
1736.25	0.00780
1723.89	0.00971
1711.53	0.01684
1699.18	0.03826
1686.82	0.06434
1674.46	0.09352
1662.1	0.12418
1649.75	0.15064
1637.39	0.16139
1625.03	0.15059
1612.67	0.11745
1600.32	0.08041
1587.96	0.06783
1575.6	0.07624
1563.24	0.09766
1550.89	0.12397
1538.53	0.14294
1526.17	0.15037
1513.81	0.15702
1501.45	0.13813
1489.1	0.10127
1476.74	0.07526
1464.38	0.07152
1452.02	0.08089
1439.67	0.07023
1427.31	0.06156
1414.95	0.07222
1402.59	0.07065
1390.24	0.06933
1377.88	0.07121
1365.52	0.06086
1353.16	0.05234
1340.81	0.06013
1328.45	0.06191
1316.09	0.05475
1303.73	0.05649
1291.37	0.05936
1279.02	0.06318
1266.66	0.07150
1254.3	0.08036
1241.94	0.09167
1229.59	0.09400
1217.23	0.07773
1204.87	0.05780
1192.51	0.04615
1180.16	0.04626
1167.8	0.05140
1155.44	0.04813
1143.08	0.04158
1130.73	0.03854
1118.37	0.03833
1106.01	0.03896
1093.65	0.03706
1081.29	0.04319
1068.94	0.04846
1056.58	0.04999
1044.22	0.04402
1031.86	0.03962
1019.51	0.04106
1007.15	0.03817
994.791	0.02736
982.433	0.02257
970.076	0.02241
957.718	0.02455
945.36	0.02590
933.003	0.02396
920.645	0.02167
908.287	0.01994
895.93	0.01963
883.572	0.01967
871.214	0.02053
858.857	0.02436
846.499	0.02635
834.141	0.02915
821.784	0.03002
809.426	0.03159
797.068	0.03346
784.711	0.03543
772.353	0.03796
759.996	0.04083
747.638	0.04474
735.28	0.04823
722.923	0.05161
710.565	0.05503
698.207	0.05873
685.85	0.06179
673.492	0.06468
661.134	0.06629
648.777	0.06758
636.419	0.06801
624.061	0.06870
611.704	0.06910
599.346	0.06940
586.988	0.07118
574.631	0.07381
562.273	0.07744
549.915	0.08080
537.558	0.08186
525.2	0.08146
512.843	0.08155
500.485	0.08136
488.127	0.08100
475.77	0.07864
463.412	0.07710
451.054	0.07506
438.697	0.07261
426.339	0.07191
413.981	0.07235
401.624	0.06991
399.564	0.06953