File: FTIR/db-LASE IR data/Silk only film/Silk only 6_28_2022 1.dpt
3997.7	0.00594
3985.34	0.00518
3972.98	0.00629
3960.63	0.00612
3948.27	0.00582
3935.91	0.00528
3923.55	0.00545
3911.2	0.00433
3898.84	0.00377
3886.48	0.00488
3874.12	0.00379
3861.77	0.00423
3849.41	0.00606
3837.05	0.00432
3824.69	0.00474
3812.34	0.00401
3799.98	0.00402
3787.62	0.00405
3775.26	0.00461
3762.9	0.00539
3750.55	0.00420
3738.19	0.00586
3725.83	0.00562
3713.47	0.00464
3701.12	0.00568
3688.76	0.00720
3676.4	0.01073
3664.04	0.01638
3651.69	0.02111
3639.33	0.02893
3626.97	0.03879
3614.61	0.04514
3602.26	0.05632
3589.9	0.06610
3577.54	0.07807
3565.18	0.08973
3552.82	0.10167
3540.47	0.11495
3528.11	0.12600
3515.75	0.13491
3503.39	0.14446
3491.04	0.15137
3478.68	0.15778
3466.32	0.16412
3453.96	0.16822
3441.61	0.17462
3429.25	0.18101
3416.89	0.18977
3404.53	0.20014
3392.18	0.21080
3379.82	0.22195
3367.46	0.23471
3355.1	0.25043
3342.74	0.26803
3330.39	0.28575
3318.03	0.30402
3305.67	0.32426
3293.31	0.33853
3280.96	0.34514
3268.6	0.34268
3256.24	0.32723
3243.88	0.30860
3231.53	0.29037
3219.17	0.26979
3206.81	0.25033
3194.45	0.22922
3182.1	0.20543
3169.74	0.18304
3157.38	0.16292
3145.02	0.14844
3132.66	0.13680
3120.31	0.13412
3107.95	0.13568
3095.59	0.14055
3083.23	0.14880
3070.88	0.15082
3058.52	0.14388
3046.16	0.12988
3033.8	0.11355
3021.45	0.09957
3009.09	0.08981
2996.73	0.09104
2984.37	0.09883
2972.02	0.09515
2959.66	0.09323
2947.3	0.09905
2934.94	0.10774
2922.58	0.09157
2910.23	0.07529
2897.87	0.06508
2885.51	0.06265
2873.15	0.05944
2860.8	0.05155
2848.44	0.04801
2836.08	0.04511
2823.72	0.04386
2811.37	0.04138
2799.01	0.03806
2786.65	0.03447
2774.29	0.03091
2761.94	0.02772
2749.58	0.02534
2737.22	0.02349
2724.86	0.02183
2712.5	0.01989
2700.15	0.01925
2687.79	0.01886
2675.43	0.01783
2663.07	0.01707
2650.72	0.01680
2638.36	0.01560
2626	0.01484
2613.64	0.01518
2601.29	0.01420
2588.93	0.01254
2576.57	0.01193
2564.21	0.00982
2551.85	0.01000
2539.5	0.00998
2527.14	0.00903
2514.78	0.00969
2502.42	0.00828
2490.07	0.00915
2477.71	0.00842
2465.35	0.00754
2452.99	0.00795
2440.64	0.00698
2428.28	0.00752
2415.92	0.00688
2403.56	0.00675
2391.21	0.00626
2378.85	0.00657
2366.49	0.00622
2354.13	0.00614
2341.77	0.00688
2329.42	0.00734
2317.06	0.00901
2304.7	0.00750
2292.34	0.00808
2279.99	0.00741
2267.63	0.00623
2255.27	0.00686
2242.91	0.00734
2230.56	0.00668
2218.2	0.00570
2205.84	0.00790
2193.48	0.00721
2181.13	0.00704
2168.77	0.00772
2156.41	0.00396
2144.05	0.00635
2131.69	0.00569
2119.34	0.00805
2106.98	0.00843
2094.62	0.00664
2082.26	0.00672
2069.91	0.00869
2057.55	0.00754
2045.19	0.00750
2032.83	0.00365
2020.48	0.00414
2008.12	0.00434
1995.76	0.00492
1983.4	0.00538
1971.05	0.00482
1958.69	0.00420
1946.33	0.00376
1933.97	0.00447
1921.61	0.00516
1909.26	0.00597
1896.9	0.00559
1884.54	0.00593
1872.18	0.00620
1859.83	0.00569
1847.47	0.00624
1835.11	0.00689
1822.75	0.00762
1810.4	0.00799
1798.04	0.00881
1785.68	0.01013
1773.32	0.01143
1760.97	0.01279
1748.61	0.01505
1736.25	0.01801
1723.89	0.02288
1711.53	0.03996
1699.18	0.09531
1686.82	0.17022
1674.46	0.26040
1662.1	0.36290
1649.75	0.45802
1637.39	0.49550
1625.03	0.44112
1612.67	0.31445
1600.32	0.20416
1587.96	0.17187
1575.6	0.19865
1563.24	0.26644
1550.89	0.35686
1538.53	0.42464
1526.17	0.44983
1513.81	0.47389
1501.45	0.38667
1489.1	0.26150
1476.74	0.18671
1464.38	0.18003
1452.02	0.20818
1439.67	0.17475
1427.31	0.15264
1414.95	0.18240
1402.59	0.17535
1390.24	0.17199
1377.88	0.17911
1365.52	0.14913
1353.16	0.12777
1340.81	0.14843
1328.45	0.15263
1316.09	0.13305
1303.73	0.14006
1291.37	0.15011
1279.02	0.16112
1266.66	0.18534
1254.3	0.21286
1241.94	0.24609
1229.59	0.24967
1217.23	0.19481
1204.87	0.13879
1192.51	0.10942
1180.16	0.11113
1167.8	0.12515
1155.44	0.11486
1143.08	0.09766
1130.73	0.08962
1118.37	0.08915
1106.01	0.08975
1093.65	0.08378
1081.29	0.10063
1068.94	0.11338
1056.58	0.11618
1044.22	0.10067
1031.86	0.08936
1019.51	0.09510
1007.15	0.08827
994.791	0.06057
982.433	0.05031
970.076	0.05043
957.718	0.05546
945.36	0.05946
933.003	0.05501
920.645	0.04977
908.287	0.04536
895.93	0.04376
883.572	0.04435
871.214	0.04741
858.857	0.05569
846.499	0.06076
834.141	0.06710
821.784	0.06925
809.426	0.07312
797.068	0.07711
784.711	0.08182
772.353	0.08777
759.996	0.09518
747.638	0.10441
735.28	0.11260
722.923	0.12043
710.565	0.12879
698.207	0.13764
685.85	0.14495
673.492	0.15141
661.134	0.15624
648.777	0.15772
636.419	0.15878
624.061	0.15871
611.704	0.15852
599.346	0.15941
586.988	0.16275
574.631	0.16789
562.273	0.17655
549.915	0.18514
537.558	0.18635
525.2	0.18394
512.843	0.18324
500.485	0.18081
488.127	0.17844
475.77	0.17194
463.412	0.16469
451.054	0.15789
438.697	0.15221
426.339	0.14782
413.981	0.14369
401.624	0.14029
399.564	0.13917