File: FTIR/db-LASE IR data/Silk only film/Silk only 6_28_2022 2.dpt
3997.7	0.00589
3985.34	0.00652
3972.98	0.00787
3960.63	0.00663
3948.27	0.00696
3935.91	0.00691
3923.55	0.00686
3911.2	0.00636
3898.84	0.00514
3886.48	0.00564
3874.12	0.00629
3861.77	0.00680
3849.41	0.01105
3837.05	0.00565
3824.69	0.00839
3812.34	0.00738
3799.98	0.00400
3787.62	0.00587
3775.26	0.00721
3762.9	0.00699
3750.55	0.00508
3738.19	0.00935
3725.83	0.00613
3713.47	0.00467
3701.12	0.00590
3688.76	0.00591
3676.4	0.01030
3664.04	0.01905
3651.69	0.02247
3639.33	0.03132
3626.97	0.04213
3614.61	0.05030
3602.26	0.06067
3589.9	0.07181
3577.54	0.08337
3565.18	0.09738
3552.82	0.10762
3540.47	0.12188
3528.11	0.13449
3515.75	0.14377
3503.39	0.15147
3491.04	0.16132
3478.68	0.16742
3466.32	0.17320
3453.96	0.17835
3441.61	0.18457
3429.25	0.19176
3416.89	0.20141
3404.53	0.21162
3392.18	0.22295
3379.82	0.23395
3367.46	0.24828
3355.1	0.26351
3342.74	0.28159
3330.39	0.29898
3318.03	0.31933
3305.67	0.33805
3293.31	0.35150
3280.96	0.35825
3268.6	0.35619
3256.24	0.34017
3243.88	0.32156
3231.53	0.30262
3219.17	0.28248
3206.81	0.26338
3194.45	0.24075
3182.1	0.21683
3169.74	0.19385
3157.38	0.17364
3145.02	0.15682
3132.66	0.14629
3120.31	0.14250
3107.95	0.14412
3095.59	0.14955
3083.23	0.15782
3070.88	0.15947
3058.52	0.15265
3046.16	0.13857
3033.8	0.12143
3021.45	0.10684
3009.09	0.09703
2996.73	0.09811
2984.37	0.10504
2972.02	0.10183
2959.66	0.09939
2947.3	0.10511
2934.94	0.11379
2922.58	0.09650
2910.23	0.07997
2897.87	0.06954
2885.51	0.06743
2873.15	0.06370
2860.8	0.05539
2848.44	0.05152
2836.08	0.04858
2823.72	0.04714
2811.37	0.04530
2799.01	0.04122
2786.65	0.03721
2774.29	0.03407
2761.94	0.03068
2749.58	0.02827
2737.22	0.02599
2724.86	0.02404
2712.5	0.02218
2700.15	0.02152
2687.79	0.02102
2675.43	0.01963
2663.07	0.01876
2650.72	0.01882
2638.36	0.01809
2626	0.01751
2613.64	0.01696
2601.29	0.01607
2588.93	0.01414
2576.57	0.01293
2564.21	0.01216
2551.85	0.01162
2539.5	0.01115
2527.14	0.01106
2514.78	0.01118
2502.42	0.01088
2490.07	0.01083
2477.71	0.00977
2465.35	0.00928
2452.99	0.00951
2440.64	0.00890
2428.28	0.00878
2415.92	0.00834
2403.56	0.00748
2391.21	0.00767
2378.85	0.00774
2366.49	0.00736
2354.13	0.00767
2341.77	0.00706
2329.42	0.00931
2317.06	0.00925
2304.7	0.00865
2292.34	0.00950
2279.99	0.00885
2267.63	0.00848
2255.27	0.00786
2242.91	0.01014
2230.56	0.00776
2218.2	0.00804
2205.84	0.00868
2193.48	0.00949
2181.13	0.00782
2168.77	0.01039
2156.41	0.00500
2144.05	0.00635
2131.69	0.00732
2119.34	0.00872
2106.98	0.00953
2094.62	0.00846
2082.26	0.00790
2069.91	0.01005
2057.55	0.00898
2045.19	0.00792
2032.83	0.00646
2020.48	0.00589
2008.12	0.00640
1995.76	0.00714
1983.4	0.00750
1971.05	0.00445
1958.69	0.00395
1946.33	0.00474
1933.97	0.00449
1921.61	0.00539
1909.26	0.00554
1896.9	0.00666
1884.54	0.00690
1872.18	0.00727
1859.83	0.00626
1847.47	0.00747
1835.11	0.00728
1822.75	0.00801
1810.4	0.00790
1798.04	0.00997
1785.68	0.01042
1773.32	0.01122
1760.97	0.01244
1748.61	0.01451
1736.25	0.01821
1723.89	0.02225
1711.53	0.03937
1699.18	0.08867
1686.82	0.15476
1674.46	0.22916
1662.1	0.31108
1649.75	0.39183
1637.39	0.42074
1625.03	0.38357
1612.67	0.28455
1600.32	0.19007
1587.96	0.16082
1575.6	0.18194
1563.24	0.24080
1550.89	0.31082
1538.53	0.36335
1526.17	0.38348
1513.81	0.40224
1501.45	0.33843
1489.1	0.23446
1476.74	0.17229
1464.38	0.16580
1452.02	0.19129
1439.67	0.16111
1427.31	0.14189
1414.95	0.16769
1402.59	0.16117
1390.24	0.15818
1377.88	0.16325
1365.52	0.13758
1353.16	0.11834
1340.81	0.13583
1328.45	0.13908
1316.09	0.12239
1303.73	0.12796
1291.37	0.13616
1279.02	0.14520
1266.66	0.16517
1254.3	0.18755
1241.94	0.21407
1229.59	0.21653
1217.23	0.17237
1204.87	0.12511
1192.51	0.09989
1180.16	0.10103
1167.8	0.11276
1155.44	0.10399
1143.08	0.08919
1130.73	0.08226
1118.37	0.08133
1106.01	0.08185
1093.65	0.07698
1081.29	0.09081
1068.94	0.10133
1056.58	0.10406
1044.22	0.09091
1031.86	0.08081
1019.51	0.08541
1007.15	0.07978
994.791	0.05578
982.433	0.04665
970.076	0.04659
957.718	0.05092
945.36	0.05426
933.003	0.05049
920.645	0.04563
908.287	0.04185
895.93	0.04020
883.572	0.04049
871.214	0.04301
858.857	0.04990
846.499	0.05407
834.141	0.05919
821.784	0.06098
809.426	0.06413
797.068	0.06747
784.711	0.07099
772.353	0.07559
759.996	0.08147
747.638	0.08815
735.28	0.09452
722.923	0.10089
710.565	0.10719
698.207	0.11384
685.85	0.11905
673.492	0.12336
661.134	0.12724
648.777	0.12835
636.419	0.12871
624.061	0.12833
611.704	0.12832
599.346	0.12858
586.988	0.13060
574.631	0.13472
562.273	0.14059
549.915	0.14556
537.558	0.14751
525.2	0.14451
512.843	0.14428
500.485	0.14269
488.127	0.14054
475.77	0.13681
463.412	0.13131
451.054	0.12639
438.697	0.12263
426.339	0.11879
413.981	0.11749
401.624	0.11478
399.564	0.11409